title:1                                                                               , recorded:03.02.16 19.40.57, sampling:128, subject:blink-twice                                                                     , labels:COUNTER INTERPOLATED AF3 F7 F3 FC5 T7 P7 O1 O2 P8 T8 FC6 F4 F8 AF4 RAW_CQ GYROX GYROY MARKER SYNC TIME_STAMP_s TIME_STAMP_ms CQ_AF3 CQ_F7 CQ_F3 CQ_FC5 CQ_T7 CQ_P7 CQ_O1 CQ_O2 CQ_P8 CQ_T8 CQ_FC6 CQ_F4 CQ_F8 CQ_AF4 CQ_CMS CQ_DRL, chan:39, units:emotiv
104.00000000000000000000, 0.00000000000000000000, 4138.46142578125000000000, 4120.00000000000000000000, 4139.48730468750000000000, 4136.92285156250000000000, 4106.15380859375000000000, 4121.53857421875000000000, 4132.82031250000000000000, 4142.05126953125000000000, 4138.97412109375000000000, 4132.30761718750000000000, 4110.76904296875000000000, 4177.43603515625000000000, 4144.61523437500000000000, 4136.41015625000000000000, 802.00000000000000000000, 2040.00000000000000000000, 2058.00000000000000000000, 0.00000000000000000000, 0.00000000000000000000, 1161.00000000000000000000, 807.00000000000000000000, 0.00000000000000000000, 0.00000000000000000000, 0.00000000000000000000, 0.00000000000000000000, 0.00000000000000000000, 0.00000000000000000000, 0.00000000000000000000, 0.00000000000000000000, 0.00000000000000000000, 0.00000000000000000000, 0.00000000000000000000, 0.00000000000000000000, 0.00000000000000000000, 0.00000000000000000000, 0.00000000000000000000, 0.00000000000000000000
105.00000000000000000000, 0.00000000000000000000, 4151.28173828125000000000, 4130.25634765625000000000, 4151.79492187500000000000, 4146.15380859375000000000, 4104.61523437500000000000, 4149.23046875000000000000, 4152.82031250000000000000, 4144.61523437500000000000, 4143.58984375000000000000, 4144.10253906250000000000, 4115.89746093750000000000, 4182.56396484375000000000, 4146.15380859375000000000, 4141.02539062500000000000, 629.00000000000000000000, 2041.00000000000000000000, 2057.00000000000000000000, 0.00000000000000000000, 0.00000000000000000000, 1161.00000000000000000000, 815.00000000000000000000, 0.00000000000000000000, 0.00000000000000000000, 0.00000000000000000000, 0.00000000000000000000, 0.00000000000000000000, 0.00000000000000000000, 0.00000000000000000000, 0.00000000000000000000, 0.00000000000000000000, 0.00000000000000000000, 0.00000000000000000000, 0.00000000000000000000, 0.00000000000000000000, 0.00000000000000000000, 0.00000000000000000000, 0.00000000000000000000
106.00000000000000000000, 0.00000000000000000000, 4164.61523437500000000000, 4148.71777343750000000000, 4147.17919921875000000000, 4159.48730468750000000000, 4125.12792968750000000000, 4168.71777343750000000000, 4158.46142578125000000000, 4146.15380859375000000000, 4144.61523437500000000000, 4162.56396484375000000000, 4121.53857421875000000000, 4188.71777343750000000000, 4156.92285156250000000000, 4148.20507812500000000000, 818.00000000000000000000, 2039.00000000000000000000, 2058.00000000000000000000, 0.00000000000000000000, 0.00000000000000000000, 1161.00000000000000000000, 823.00000000000000000000, 0.00000000000000000000, 0.00000000000000000000, 0.00000000000000000000, 0.00000000000000000000, 0.00000000000000000000, 0.00000000000000000000, 0.00000000000000000000, 0.00000000000000000000, 0.00000000000000000000, 0.00000000000000000000, 0.00000000000000000000, 0.00000000000000000000, 0.00000000000000000000, 0.00000000000000000000, 0.00000000000000000000, 0.00000000000000000000
107.00000000000000000000, 0.00000000000000000000, 4153.84619140625000000000, 4146.66650390625000000000, 4147.17919921875000000000, 4160.00000000000000000000, 4133.33300781250000000000, 4148.71777343750000000000, 4143.07666015625000000000, 4142.05126953125000000000, 4134.87158203125000000000, 4152.82031250000000000000, 4116.41015625000000000000, 4182.05126953125000000000, 4162.05126953125000000000, 4142.56396484375000000000, 776.00000000000000000000, 2038.00000000000000000000, 2057.00000000000000000000, 0.00000000000000000000, 0.00000000000000000000, 1161.00000000000000000000, 831.00000000000000000000, 0.00000000000000000000, 0.00000000000000000000, 0.00000000000000000000, 0.00000000000000000000, 0.00000000000000000000, 0.00000000000000000000, 0.00000000000000000000, 0.00000000000000000000, 0.00000000000000000000, 0.00000000000000000000, 0.00000000000000000000, 0.00000000000000000000, 0.00000000000000000000, 0.00000000000000000000, 0.00000000000000000000, 0.00000000000000000000
108.00000000000000000000, 0.00000000000000000000, 4148.20507812500000000000, 4141.53857421875000000000, 4158.97412109375000000000, 4157.43603515625000000000, 4118.46142578125000000000, 4146.66650390625000000000, 4147.17919921875000000000, 4146.66650390625000000000, 4133.84619140625000000000, 4137.43603515625000000000, 4130.76904296875000000000, 4188.71777343750000000000, 4172.82031250000000000000, 4149.23046875000000000000, 802.00000000000000000000, 2039.00000000000000000000, 2056.00000000000000000000, 0.00000000000000000000, 0.00000000000000000000, 1161.00000000000000000000, 839.00000000000000000000, 0.00000000000000000000, 0.00000000000000000000, 0.00000000000000000000, 0.00000000000000000000, 0.00000000000000000000, 0.00000000000000000000, 0.00000000000000000000, 0.00000000000000000000, 0.00000000000000000000, 0.00000000000000000000, 0.00000000000000000000, 0.00000000000000000000, 0.00000000000000000000, 0.00000000000000000000, 0.00000000000000000000, 0.00000000000000000000
109.00000000000000000000, 0.00000000000000000000, 4152.82031250000000000000, 4143.58984375000000000000, 4148.20507812500000000000, 4154.35888671875000000000, 4115.38427734375000000000, 4157.43603515625000000000, 4152.82031250000000000000, 4149.74365234375000000000, 4141.53857421875000000000, 4151.79492187500000000000, 4147.69238281250000000000, 4196.92285156250000000000, 4177.94873046875000000000, 4162.05126953125000000000, 629.00000000000000000000, 2040.00000000000000000000, 2056.00000000000000000000, 0.00000000000000000000, 0.00000000000000000000, 1161.00000000000000000000, 847.00000000000000000000, 0.00000000000000000000, 0.00000000000000000000, 0.00000000000000000000, 0.00000000000000000000, 0.00000000000000000000, 0.00000000000000000000, 0.00000000000000000000, 0.00000000000000000000, 0.00000000000000000000, 0.00000000000000000000, 0.00000000000000000000, 0.00000000000000000000, 0.00000000000000000000, 0.00000000000000000000, 0.00000000000000000000, 0.00000000000000000000
110.00000000000000000000, 0.00000000000000000000, 4149.23046875000000000000, 4136.92285156250000000000, 4142.56396484375000000000, 4147.17919921875000000000, 4127.69238281250000000000, 4144.10253906250000000000, 4136.92285156250000000000, 4144.61523437500000000000, 4145.12792968750000000000, 4168.20507812500000000000, 4140.51269531250000000000, 4189.23046875000000000000, 4162.56396484375000000000, 4156.92285156250000000000, 818.00000000000000000000, 2039.00000000000000000000, 2058.00000000000000000000, 0.00000000000000000000, 0.00000000000000000000, 1161.00000000000000000000, 855.00000000000000000000, 0.00000000000000000000, 0.00000000000000000000, 0.00000000000000000000, 0.00000000000000000000, 0.00000000000000000000, 0.00000000000000000000, 0.00000000000000000000, 0.00000000000000000000, 0.00000000000000000000, 0.00000000000000000000, 0.00000000000000000000, 0.00000000000000000000, 0.00000000000000000000, 0.00000000000000000000, 0.00000000000000000000, 0.00000000000000000000
111.00000000000000000000, 0.00000000000000000000, 4145.12792968750000000000, 4130.25634765625000000000, 4160.00000000000000000000, 4147.69238281250000000000, 4124.61523437500000000000, 4134.87158203125000000000, 4134.35888671875000000000, 4145.64111328125000000000, 4144.10253906250000000000, 4159.48730468750000000000, 4131.79492187500000000000, 4185.12792968750000000000, 4147.69238281250000000000, 4151.28173828125000000000, 776.00000000000000000000, 2039.00000000000000000000, 2057.00000000000000000000, 0.00000000000000000000, 0.00000000000000000000, 1161.00000000000000000000, 863.00000000000000000000, 0.00000000000000000000, 0.00000000000000000000, 0.00000000000000000000, 0.00000000000000000000, 0.00000000000000000000, 0.00000000000000000000, 0.00000000000000000000, 0.00000000000000000000, 0.00000000000000000000, 0.00000000000000000000, 0.00000000000000000000, 0.00000000000000000000, 0.00000000000000000000, 0.00000000000000000000, 0.00000000000000000000, 0.00000000000000000000
112.00000000000000000000, 0.00000000000000000000, 4147.17919921875000000000, 4129.74365234375000000000, 4152.82031250000000000000, 4148.20507812500000000000, 4105.12792968750000000000, 4136.92285156250000000000, 4146.66650390625000000000, 4149.23046875000000000000, 4132.82031250000000000000, 4150.25634765625000000000, 4130.76904296875000000000, 4187.69238281250000000000, 4147.69238281250000000000, 4154.35888671875000000000, 802.00000000000000000000, 2039.00000000000000000000, 2057.00000000000000000000, 0.00000000000000000000, 0.00000000000000000000, 1161.00000000000000000000, 871.00000000000000000000, 0.00000000000000000000, 0.00000000000000000000, 0.00000000000000000000, 0.00000000000000000000, 0.00000000000000000000, 0.00000000000000000000, 0.00000000000000000000, 0.00000000000000000000, 0.00000000000000000000, 0.00000000000000000000, 0.00000000000000000000, 0.00000000000000000000, 0.00000000000000000000, 0.00000000000000000000, 0.00000000000000000000, 0.00000000000000000000
113.00000000000000000000, 0.00000000000000000000, 4154.87158203125000000000, 4133.84619140625000000000, 4140.00000000000000000000, 4151.79492187500000000000, 4107.69238281250000000000, 4139.48730468750000000000, 4148.71777343750000000000, 4147.69238281250000000000, 4128.71777343750000000000, 4166.15380859375000000000, 4138.46142578125000000000, 4191.79492187500000000000, 4155.89746093750000000000, 4158.46142578125000000000, 629.00000000000000000000, 2039.00000000000000000000, 2059.00000000000000000000, 0.00000000000000000000, 0.00000000000000000000, 1161.00000000000000000000, 878.00000000000000000000, 0.00000000000000000000, 0.00000000000000000000, 0.00000000000000000000, 0.00000000000000000000, 0.00000000000000000000, 0.00000000000000000000, 0.00000000000000000000, 0.00000000000000000000, 0.00000000000000000000, 0.00000000000000000000, 0.00000000000000000000, 0.00000000000000000000, 0.00000000000000000000, 0.00000000000000000000, 0.00000000000000000000, 0.00000000000000000000
114.00000000000000000000, 0.00000000000000000000, 4149.23046875000000000000, 4134.87158203125000000000, 4153.33300781250000000000, 4148.71777343750000000000, 4121.53857421875000000000, 4145.64111328125000000000, 4145.64111328125000000000, 4145.12792968750000000000, 4145.64111328125000000000, 4168.20507812500000000000, 4144.10253906250000000000, 4189.23046875000000000000, 4151.28173828125000000000, 4156.41015625000000000000, 818.00000000000000000000, 2040.00000000000000000000, 2058.00000000000000000000, 0.00000000000000000000, 0.00000000000000000000, 1161.00000000000000000000, 886.00000000000000000000, 0.00000000000000000000, 0.00000000000000000000, 0.00000000000000000000, 0.00000000000000000000, 0.00000000000000000000, 0.00000000000000000000, 0.00000000000000000000, 0.00000000000000000000, 0.00000000000000000000, 0.00000000000000000000, 0.00000000000000000000, 0.00000000000000000000, 0.00000000000000000000, 0.00000000000000000000, 0.00000000000000000000, 0.00000000000000000000
115.00000000000000000000, 0.00000000000000000000, 4136.41015625000000000000, 4124.10253906250000000000, 4151.28173828125000000000, 4135.38427734375000000000, 4112.30761718750000000000, 4139.48730468750000000000, 4145.12792968750000000000, 4148.20507812500000000000, 4152.30761718750000000000, 4150.76904296875000000000, 4133.33300781250000000000, 4184.10253906250000000000, 4140.51269531250000000000, 4151.28173828125000000000, 776.00000000000000000000, 2039.00000000000000000000, 2059.00000000000000000000, 0.00000000000000000000, 0.00000000000000000000, 1161.00000000000000000000, 894.00000000000000000000, 0.00000000000000000000, 0.00000000000000000000, 0.00000000000000000000, 0.00000000000000000000, 0.00000000000000000000, 0.00000000000000000000, 0.00000000000000000000, 0.00000000000000000000, 0.00000000000000000000, 0.00000000000000000000, 0.00000000000000000000, 0.00000000000000000000, 0.00000000000000000000, 0.00000000000000000000, 0.00000000000000000000, 0.00000000000000000000
116.00000000000000000000, 0.00000000000000000000, 4138.97412109375000000000, 4122.05126953125000000000, 4131.79492187500000000000, 4140.00000000000000000000, 4103.58984375000000000000, 4134.87158203125000000000, 4146.15380859375000000000, 4148.71777343750000000000, 4140.51269531250000000000, 4153.33300781250000000000, 4124.61523437500000000000, 4183.07666015625000000000, 4138.97412109375000000000, 4149.74365234375000000000, 802.00000000000000000000, 2040.00000000000000000000, 2058.00000000000000000000, 0.00000000000000000000, 0.00000000000000000000, 1161.00000000000000000000, 902.00000000000000000000, 0.00000000000000000000, 0.00000000000000000000, 0.00000000000000000000, 0.00000000000000000000, 0.00000000000000000000, 0.00000000000000000000, 0.00000000000000000000, 0.00000000000000000000, 0.00000000000000000000, 0.00000000000000000000, 0.00000000000000000000, 0.00000000000000000000, 0.00000000000000000000, 0.00000000000000000000, 0.00000000000000000000, 0.00000000000000000000
117.00000000000000000000, 0.00000000000000000000, 4141.53857421875000000000, 4122.05126953125000000000, 4141.53857421875000000000, 4144.10253906250000000000, 4113.33300781250000000000, 4139.48730468750000000000, 4148.20507812500000000000, 4144.61523437500000000000, 4137.43603515625000000000, 4147.17919921875000000000, 4128.20507812500000000000, 4183.07666015625000000000, 4132.30761718750000000000, 4148.20507812500000000000, 629.00000000000000000000, 2040.00000000000000000000, 2058.00000000000000000000, 0.00000000000000000000, 0.00000000000000000000, 1161.00000000000000000000, 910.00000000000000000000, 0.00000000000000000000, 0.00000000000000000000, 0.00000000000000000000, 0.00000000000000000000, 0.00000000000000000000, 0.00000000000000000000, 0.00000000000000000000, 0.00000000000000000000, 0.00000000000000000000, 0.00000000000000000000, 0.00000000000000000000, 0.00000000000000000000, 0.00000000000000000000, 0.00000000000000000000, 0.00000000000000000000, 0.00000000000000000000
118.00000000000000000000, 0.00000000000000000000, 4136.41015625000000000000, 4115.38427734375000000000, 4145.64111328125000000000, 4132.82031250000000000000, 4118.46142578125000000000, 4138.97412109375000000000, 4150.76904296875000000000, 4145.64111328125000000000, 4144.61523437500000000000, 4128.71777343750000000000, 4130.25634765625000000000, 4178.97412109375000000000, 4128.20507812500000000000, 4145.12792968750000000000, 818.00000000000000000000, 2039.00000000000000000000, 2059.00000000000000000000, 0.00000000000000000000, 0.00000000000000000000, 1161.00000000000000000000, 918.00000000000000000000, 0.00000000000000000000, 0.00000000000000000000, 0.00000000000000000000, 0.00000000000000000000, 0.00000000000000000000, 0.00000000000000000000, 0.00000000000000000000, 0.00000000000000000000, 0.00000000000000000000, 0.00000000000000000000, 0.00000000000000000000, 0.00000000000000000000, 0.00000000000000000000, 0.00000000000000000000, 0.00000000000000000000, 0.00000000000000000000
119.00000000000000000000, 0.00000000000000000000, 4142.56396484375000000000, 4125.12792968750000000000, 4134.35888671875000000000, 4136.92285156250000000000, 4114.35888671875000000000, 4140.51269531250000000000, 4155.89746093750000000000, 4154.87158203125000000000, 4148.71777343750000000000, 4150.76904296875000000000, 4129.74365234375000000000, 4187.69238281250000000000, 4139.48730468750000000000, 4149.23046875000000000000, 776.00000000000000000000, 2039.00000000000000000000, 2058.00000000000000000000, 0.00000000000000000000, 0.00000000000000000000, 1161.00000000000000000000, 925.00000000000000000000, 0.00000000000000000000, 0.00000000000000000000, 0.00000000000000000000, 0.00000000000000000000, 0.00000000000000000000, 0.00000000000000000000, 0.00000000000000000000, 0.00000000000000000000, 0.00000000000000000000, 0.00000000000000000000, 0.00000000000000000000, 0.00000000000000000000, 0.00000000000000000000, 0.00000000000000000000, 0.00000000000000000000, 0.00000000000000000000
120.00000000000000000000, 0.00000000000000000000, 4149.23046875000000000000, 4138.97412109375000000000, 4143.07666015625000000000, 4152.82031250000000000000, 4114.35888671875000000000, 4150.76904296875000000000, 4161.53857421875000000000, 4155.38427734375000000000, 4149.74365234375000000000, 4177.94873046875000000000, 4130.76904296875000000000, 4191.79492187500000000000, 4142.05126953125000000000, 4152.30761718750000000000, 802.00000000000000000000, 2038.00000000000000000000, 2059.00000000000000000000, 0.00000000000000000000, 0.00000000000000000000, 1161.00000000000000000000, 933.00000000000000000000, 0.00000000000000000000, 0.00000000000000000000, 0.00000000000000000000, 0.00000000000000000000, 0.00000000000000000000, 0.00000000000000000000, 0.00000000000000000000, 0.00000000000000000000, 0.00000000000000000000, 0.00000000000000000000, 0.00000000000000000000, 0.00000000000000000000, 0.00000000000000000000, 0.00000000000000000000, 0.00000000000000000000, 0.00000000000000000000
121.00000000000000000000, 0.00000000000000000000, 4147.69238281250000000000, 4131.79492187500000000000, 4160.51269531250000000000, 4145.64111328125000000000, 4108.71777343750000000000, 4156.92285156250000000000, 4162.56396484375000000000, 4150.25634765625000000000, 4145.12792968750000000000, 4157.43603515625000000000, 4123.58984375000000000000, 4182.05126953125000000000, 4126.66650390625000000000, 4144.61523437500000000000, 629.00000000000000000000, 2038.00000000000000000000, 2060.00000000000000000000, 0.00000000000000000000, 0.00000000000000000000, 1161.00000000000000000000, 941.00000000000000000000, 0.00000000000000000000, 0.00000000000000000000, 0.00000000000000000000, 0.00000000000000000000, 0.00000000000000000000, 0.00000000000000000000, 0.00000000000000000000, 0.00000000000000000000, 0.00000000000000000000, 0.00000000000000000000, 0.00000000000000000000, 0.00000000000000000000, 0.00000000000000000000, 0.00000000000000000000, 0.00000000000000000000, 0.00000000000000000000
122.00000000000000000000, 0.00000000000000000000, 4145.12792968750000000000, 4127.69238281250000000000, 4148.71777343750000000000, 4138.46142578125000000000, 4107.69238281250000000000, 4159.48730468750000000000, 4161.53857421875000000000, 4149.23046875000000000000, 4142.05126953125000000000, 4148.71777343750000000000, 4121.02539062500000000000, 4183.58984375000000000000, 4128.20507812500000000000, 4145.64111328125000000000, 818.00000000000000000000, 2040.00000000000000000000, 2059.00000000000000000000, 0.00000000000000000000, 0.00000000000000000000, 1161.00000000000000000000, 948.00000000000000000000, 0.00000000000000000000, 0.00000000000000000000, 0.00000000000000000000, 0.00000000000000000000, 0.00000000000000000000, 0.00000000000000000000, 0.00000000000000000000, 0.00000000000000000000, 0.00000000000000000000, 0.00000000000000000000, 0.00000000000000000000, 0.00000000000000000000, 0.00000000000000000000, 0.00000000000000000000, 0.00000000000000000000, 0.00000000000000000000
123.00000000000000000000, 0.00000000000000000000, 4140.51269531250000000000, 4131.79492187500000000000, 4140.00000000000000000000, 4141.02539062500000000000, 4114.35888671875000000000, 4158.46142578125000000000, 4157.43603515625000000000, 4149.23046875000000000000, 4144.61523437500000000000, 4153.33300781250000000000, 4125.12792968750000000000, 4190.25634765625000000000, 4125.64111328125000000000, 4149.23046875000000000000, 776.00000000000000000000, 2039.00000000000000000000, 2058.00000000000000000000, 0.00000000000000000000, 0.00000000000000000000, 1161.00000000000000000000, 956.00000000000000000000, 0.00000000000000000000, 0.00000000000000000000, 0.00000000000000000000, 0.00000000000000000000, 0.00000000000000000000, 0.00000000000000000000, 0.00000000000000000000, 0.00000000000000000000, 0.00000000000000000000, 0.00000000000000000000, 0.00000000000000000000, 0.00000000000000000000, 0.00000000000000000000, 0.00000000000000000000, 0.00000000000000000000, 0.00000000000000000000
124.00000000000000000000, 0.00000000000000000000, 4128.20507812500000000000, 4126.66650390625000000000, 4147.69238281250000000000, 4131.28173828125000000000, 4115.38427734375000000000, 4149.74365234375000000000, 4147.17919921875000000000, 4144.10253906250000000000, 4141.02539062500000000000, 4128.20507812500000000000, 4116.41015625000000000000, 4177.43603515625000000000, 4110.25634765625000000000, 4141.02539062500000000000, 802.00000000000000000000, 2038.00000000000000000000, 2058.00000000000000000000, 0.00000000000000000000, 0.00000000000000000000, 1161.00000000000000000000, 965.00000000000000000000, 0.00000000000000000000, 0.00000000000000000000, 0.00000000000000000000, 0.00000000000000000000, 0.00000000000000000000, 0.00000000000000000000, 0.00000000000000000000, 0.00000000000000000000, 0.00000000000000000000, 0.00000000000000000000, 0.00000000000000000000, 0.00000000000000000000, 0.00000000000000000000, 0.00000000000000000000, 0.00000000000000000000, 0.00000000000000000000
125.00000000000000000000, 0.00000000000000000000, 4127.69238281250000000000, 4118.97412109375000000000, 4141.02539062500000000000, 4128.20507812500000000000, 4106.66650390625000000000, 4147.17919921875000000000, 4143.07666015625000000000, 4142.05126953125000000000, 4135.38427734375000000000, 4117.94873046875000000000, 4104.61523437500000000000, 4172.82031250000000000000, 4109.74365234375000000000, 4129.23046875000000000000, 629.00000000000000000000, 2039.00000000000000000000, 2058.00000000000000000000, 0.00000000000000000000, 0.00000000000000000000, 1161.00000000000000000000, 973.00000000000000000000, 0.00000000000000000000, 0.00000000000000000000, 0.00000000000000000000, 0.00000000000000000000, 0.00000000000000000000, 0.00000000000000000000, 0.00000000000000000000, 0.00000000000000000000, 0.00000000000000000000, 0.00000000000000000000, 0.00000000000000000000, 0.00000000000000000000, 0.00000000000000000000, 0.00000000000000000000, 0.00000000000000000000, 0.00000000000000000000
126.00000000000000000000, 0.00000000000000000000, 4143.07666015625000000000, 4130.76904296875000000000, 4132.82031250000000000000, 4145.12792968750000000000, 4109.74365234375000000000, 4152.82031250000000000000, 4146.66650390625000000000, 4142.05126953125000000000, 4143.58984375000000000000, 4147.69238281250000000000, 4116.92285156250000000000, 4188.20507812500000000000, 4123.07666015625000000000, 4133.84619140625000000000, 818.00000000000000000000, 2039.00000000000000000000, 2058.00000000000000000000, 0.00000000000000000000, 0.00000000000000000000, 1161.00000000000000000000, 981.00000000000000000000, 0.00000000000000000000, 0.00000000000000000000, 0.00000000000000000000, 0.00000000000000000000, 0.00000000000000000000, 0.00000000000000000000, 0.00000000000000000000, 0.00000000000000000000, 0.00000000000000000000, 0.00000000000000000000, 0.00000000000000000000, 0.00000000000000000000, 0.00000000000000000000, 0.00000000000000000000, 0.00000000000000000000, 0.00000000000000000000
127.00000000000000000000, 0.00000000000000000000, 4154.87158203125000000000, 4148.20507812500000000000, 4153.84619140625000000000, 4154.87158203125000000000, 4120.51269531250000000000, 4149.74365234375000000000, 4145.12792968750000000000, 4144.10253906250000000000, 4153.84619140625000000000, 4156.41015625000000000000, 4135.38427734375000000000, 4197.43603515625000000000, 4132.82031250000000000000, 4151.79492187500000000000, 776.00000000000000000000, 2037.00000000000000000000, 2058.00000000000000000000, 0.00000000000000000000, 0.00000000000000000000, 1161.00000000000000000000, 990.00000000000000000000, 0.00000000000000000000, 0.00000000000000000000, 0.00000000000000000000, 0.00000000000000000000, 0.00000000000000000000, 0.00000000000000000000, 0.00000000000000000000, 0.00000000000000000000, 0.00000000000000000000, 0.00000000000000000000, 0.00000000000000000000, 0.00000000000000000000, 0.00000000000000000000, 0.00000000000000000000, 0.00000000000000000000, 0.00000000000000000000
128.00000000000000000000, 0.00000000000000000000, 4151.79492187500000000000, 4144.61523437500000000000, 4159.48730468750000000000, 4144.61523437500000000000, 4115.38427734375000000000, 4134.87158203125000000000, 4139.48730468750000000000, 4148.20507812500000000000, 4150.76904296875000000000, 4148.71777343750000000000, 4131.28173828125000000000, 4189.74365234375000000000, 4138.46142578125000000000, 4155.38427734375000000000, 802.00000000000000000000, 2039.00000000000000000000, 2059.00000000000000000000, 0.00000000000000000000, 0.00000000000000000000, 1161.00000000000000000000, 997.00000000000000000000, 0.00000000000000000000, 0.00000000000000000000, 0.00000000000000000000, 0.00000000000000000000, 0.00000000000000000000, 0.00000000000000000000, 0.00000000000000000000, 0.00000000000000000000, 0.00000000000000000000, 0.00000000000000000000, 0.00000000000000000000, 0.00000000000000000000, 0.00000000000000000000, 0.00000000000000000000, 0.00000000000000000000, 0.00000000000000000000
0.00000000000000000000, 0.00000000000000000000, 4148.20507812500000000000, 4134.87158203125000000000, 4138.97412109375000000000, 4140.00000000000000000000, 4107.17919921875000000000, 4129.74365234375000000000, 4140.00000000000000000000, 4148.20507812500000000000, 4143.07666015625000000000, 4154.87158203125000000000, 4122.05126953125000000000, 4185.64111328125000000000, 4136.41015625000000000000, 4145.64111328125000000000, 620.00000000000000000000, 2037.00000000000000000000, 2058.00000000000000000000, 0.00000000000000000000, 0.00000000000000000000, 1162.00000000000000000000, 4.00000000000000000000, 4.00000000000000000000, 0.00000000000000000000, 0.00000000000000000000, 0.00000000000000000000, 0.00000000000000000000, 0.00000000000000000000, 0.00000000000000000000, 0.00000000000000000000, 0.00000000000000000000, 0.00000000000000000000, 0.00000000000000000000, 0.00000000000000000000, 0.00000000000000000000, 0.00000000000000000000, 0.00000000000000000000, 0.00000000000000000000
1.00000000000000000000, 0.00000000000000000000, 4152.30761718750000000000, 4144.10253906250000000000, 4146.66650390625000000000, 4152.30761718750000000000, 4112.82031250000000000000, 4142.05126953125000000000, 4145.12792968750000000000, 4145.12792968750000000000, 4142.56396484375000000000, 4158.97412109375000000000, 4130.25634765625000000000, 4194.35888671875000000000, 4134.35888671875000000000, 4154.87158203125000000000, 817.00000000000000000000, 2036.00000000000000000000, 2059.00000000000000000000, 0.00000000000000000000, 0.00000000000000000000, 1162.00000000000000000000, 12.00000000000000000000, 4.00000000000000000000, 4.00000000000000000000, 0.00000000000000000000, 0.00000000000000000000, 0.00000000000000000000, 0.00000000000000000000, 0.00000000000000000000, 0.00000000000000000000, 0.00000000000000000000, 0.00000000000000000000, 0.00000000000000000000, 0.00000000000000000000, 0.00000000000000000000, 0.00000000000000000000, 0.00000000000000000000, 0.00000000000000000000
2.00000000000000000000, 0.00000000000000000000, 4154.35888671875000000000, 4154.35888671875000000000, 4166.66650390625000000000, 4154.35888671875000000000, 4120.51269531250000000000, 4157.43603515625000000000, 4155.89746093750000000000, 4150.76904296875000000000, 4146.66650390625000000000, 4161.53857421875000000000, 4138.97412109375000000000, 4198.46142578125000000000, 4141.53857421875000000000, 4163.07666015625000000000, 685.00000000000000000000, 2039.00000000000000000000, 2060.00000000000000000000, 0.00000000000000000000, 0.00000000000000000000, 1162.00000000000000000000, 20.00000000000000000000, 4.00000000000000000000, 4.00000000000000000000, 4.00000000000000000000, 0.00000000000000000000, 0.00000000000000000000, 0.00000000000000000000, 0.00000000000000000000, 0.00000000000000000000, 0.00000000000000000000, 0.00000000000000000000, 0.00000000000000000000, 0.00000000000000000000, 0.00000000000000000000, 0.00000000000000000000, 4.00000000000000000000, 0.00000000000000000000
3.00000000000000000000, 0.00000000000000000000, 4151.79492187500000000000, 4148.20507812500000000000, 4155.89746093750000000000, 4147.17919921875000000000, 4118.97412109375000000000, 4160.00000000000000000000, 4163.07666015625000000000, 4155.89746093750000000000, 4150.25634765625000000000, 4165.64111328125000000000, 4132.30761718750000000000, 4195.38427734375000000000, 4138.46142578125000000000, 4146.15380859375000000000, 782.00000000000000000000, 2039.00000000000000000000, 2059.00000000000000000000, 0.00000000000000000000, 0.00000000000000000000, 1162.00000000000000000000, 27.00000000000000000000, 4.00000000000000000000, 4.00000000000000000000, 4.00000000000000000000, 4.00000000000000000000, 0.00000000000000000000, 0.00000000000000000000, 0.00000000000000000000, 0.00000000000000000000, 0.00000000000000000000, 0.00000000000000000000, 0.00000000000000000000, 0.00000000000000000000, 0.00000000000000000000, 0.00000000000000000000, 4.00000000000000000000, 4.00000000000000000000
4.00000000000000000000, 0.00000000000000000000, 4151.79492187500000000000, 4153.84619140625000000000, 4151.28173828125000000000, 4158.97412109375000000000, 4122.56396484375000000000, 4151.79492187500000000000, 4156.92285156250000000000, 4148.20507812500000000000, 4150.25634765625000000000, 4160.51269531250000000000, 4133.33300781250000000000, 4195.89746093750000000000, 4132.82031250000000000000, 4147.17919921875000000000, 851.00000000000000000000, 2038.00000000000000000000, 2057.00000000000000000000, 0.00000000000000000000, 0.00000000000000000000, 1162.00000000000000000000, 36.00000000000000000000, 4.00000000000000000000, 4.00000000000000000000, 4.00000000000000000000, 4.00000000000000000000, 4.00000000000000000000, 0.00000000000000000000, 0.00000000000000000000, 0.00000000000000000000, 0.00000000000000000000, 0.00000000000000000000, 0.00000000000000000000, 0.00000000000000000000, 0.00000000000000000000, 0.00000000000000000000, 4.00000000000000000000, 4.00000000000000000000
5.00000000000000000000, 0.00000000000000000000, 4155.38427734375000000000, 4162.05126953125000000000, 4170.25634765625000000000, 4167.69238281250000000000, 4123.58984375000000000000, 4149.74365234375000000000, 4154.87158203125000000000, 4145.64111328125000000000, 4148.71777343750000000000, 4145.64111328125000000000, 4141.02539062500000000000, 4200.00000000000000000000, 4137.94873046875000000000, 4170.76904296875000000000, 608.00000000000000000000, 2040.00000000000000000000, 2056.00000000000000000000, 0.00000000000000000000, 0.00000000000000000000, 1162.00000000000000000000, 44.00000000000000000000, 4.00000000000000000000, 4.00000000000000000000, 4.00000000000000000000, 4.00000000000000000000, 4.00000000000000000000, 4.00000000000000000000, 0.00000000000000000000, 0.00000000000000000000, 0.00000000000000000000, 0.00000000000000000000, 0.00000000000000000000, 0.00000000000000000000, 0.00000000000000000000, 0.00000000000000000000, 4.00000000000000000000, 4.00000000000000000000
6.00000000000000000000, 0.00000000000000000000, 4152.30761718750000000000, 4149.74365234375000000000, 4156.41015625000000000000, 4149.23046875000000000000, 4114.35888671875000000000, 4147.69238281250000000000, 4158.46142578125000000000, 4151.28173828125000000000, 4146.66650390625000000000, 4141.53857421875000000000, 4135.38427734375000000000, 4190.76904296875000000000, 4137.43603515625000000000, 4162.05126953125000000000, 686.00000000000000000000, 2038.00000000000000000000, 2056.00000000000000000000, 0.00000000000000000000, 0.00000000000000000000, 1162.00000000000000000000, 52.00000000000000000000, 4.00000000000000000000, 4.00000000000000000000, 4.00000000000000000000, 4.00000000000000000000, 4.00000000000000000000, 4.00000000000000000000, 4.00000000000000000000, 0.00000000000000000000, 0.00000000000000000000, 0.00000000000000000000, 0.00000000000000000000, 0.00000000000000000000, 0.00000000000000000000, 0.00000000000000000000, 4.00000000000000000000, 4.00000000000000000000
7.00000000000000000000, 0.00000000000000000000, 4144.10253906250000000000, 4141.53857421875000000000, 4139.48730468750000000000, 4143.58984375000000000000, 4114.87158203125000000000, 4135.38427734375000000000, 4151.28173828125000000000, 4150.25634765625000000000, 4148.20507812500000000000, 4146.66650390625000000000, 4126.15380859375000000000, 4186.15380859375000000000, 4130.76904296875000000000, 4142.05126953125000000000, 227.00000000000000000000, 2041.00000000000000000000, 2056.00000000000000000000, 0.00000000000000000000, 0.00000000000000000000, 1162.00000000000000000000, 59.00000000000000000000, 4.00000000000000000000, 4.00000000000000000000, 4.00000000000000000000, 4.00000000000000000000, 4.00000000000000000000, 4.00000000000000000000, 4.00000000000000000000, 2.00000000000000000000, 0.00000000000000000000, 0.00000000000000000000, 0.00000000000000000000, 0.00000000000000000000, 0.00000000000000000000, 0.00000000000000000000, 4.00000000000000000000, 4.00000000000000000000
8.00000000000000000000, 0.00000000000000000000, 4142.56396484375000000000, 4149.74365234375000000000, 4154.35888671875000000000, 4158.97412109375000000000, 4118.46142578125000000000, 4126.15380859375000000000, 4141.02539062500000000000, 4144.10253906250000000000, 4152.30761718750000000000, 4155.89746093750000000000, 4129.74365234375000000000, 4189.74365234375000000000, 4134.35888671875000000000, 4152.82031250000000000000, 581.00000000000000000000, 2042.00000000000000000000, 2057.00000000000000000000, 0.00000000000000000000, 0.00000000000000000000, 1162.00000000000000000000, 67.00000000000000000000, 4.00000000000000000000, 4.00000000000000000000, 4.00000000000000000000, 4.00000000000000000000, 4.00000000000000000000, 4.00000000000000000000, 4.00000000000000000000, 2.00000000000000000000, 4.00000000000000000000, 0.00000000000000000000, 0.00000000000000000000, 0.00000000000000000000, 0.00000000000000000000, 0.00000000000000000000, 4.00000000000000000000, 4.00000000000000000000
9.00000000000000000000, 0.00000000000000000000, 4150.25634765625000000000, 4150.76904296875000000000, 4160.51269531250000000000, 4153.33300781250000000000, 4112.30761718750000000000, 4135.89746093750000000000, 4146.66650390625000000000, 4148.20507812500000000000, 4149.23046875000000000000, 4165.12792968750000000000, 4137.94873046875000000000, 4190.25634765625000000000, 4139.48730468750000000000, 4161.02539062500000000000, 861.00000000000000000000, 2040.00000000000000000000, 2057.00000000000000000000, 0.00000000000000000000, 0.00000000000000000000, 1162.00000000000000000000, 75.00000000000000000000, 4.00000000000000000000, 4.00000000000000000000, 4.00000000000000000000, 4.00000000000000000000, 4.00000000000000000000, 4.00000000000000000000, 4.00000000000000000000, 2.00000000000000000000, 4.00000000000000000000, 4.00000000000000000000, 0.00000000000000000000, 0.00000000000000000000, 0.00000000000000000000, 0.00000000000000000000, 4.00000000000000000000, 4.00000000000000000000
10.00000000000000000000, 0.00000000000000000000, 4148.71777343750000000000, 4147.69238281250000000000, 4139.48730468750000000000, 4146.66650390625000000000, 4114.35888671875000000000, 4151.28173828125000000000, 4156.92285156250000000000, 4152.30761718750000000000, 4149.74365234375000000000, 4171.79492187500000000000, 4141.53857421875000000000, 4188.71777343750000000000, 4140.51269531250000000000, 4147.17919921875000000000, 818.00000000000000000000, 2039.00000000000000000000, 2056.00000000000000000000, 0.00000000000000000000, 0.00000000000000000000, 1162.00000000000000000000, 83.00000000000000000000, 4.00000000000000000000, 4.00000000000000000000, 4.00000000000000000000, 4.00000000000000000000, 4.00000000000000000000, 4.00000000000000000000, 4.00000000000000000000, 2.00000000000000000000, 4.00000000000000000000, 4.00000000000000000000, 4.00000000000000000000, 0.00000000000000000000, 0.00000000000000000000, 0.00000000000000000000, 4.00000000000000000000, 4.00000000000000000000
11.00000000000000000000, 0.00000000000000000000, 4147.69238281250000000000, 4158.46142578125000000000, 4149.23046875000000000000, 4162.56396484375000000000, 4122.05126953125000000000, 4160.00000000000000000000, 4163.07666015625000000000, 4152.30761718750000000000, 4154.87158203125000000000, 4172.82031250000000000000, 4138.97412109375000000000, 4192.82031250000000000000, 4138.97412109375000000000, 4148.20507812500000000000, 776.00000000000000000000, 2040.00000000000000000000, 2058.00000000000000000000, 0.00000000000000000000, 0.00000000000000000000, 1162.00000000000000000000, 91.00000000000000000000, 4.00000000000000000000, 4.00000000000000000000, 4.00000000000000000000, 4.00000000000000000000, 4.00000000000000000000, 4.00000000000000000000, 4.00000000000000000000, 2.00000000000000000000, 4.00000000000000000000, 4.00000000000000000000, 4.00000000000000000000, 4.00000000000000000000, 0.00000000000000000000, 0.00000000000000000000, 4.00000000000000000000, 4.00000000000000000000
12.00000000000000000000, 0.00000000000000000000, 4152.82031250000000000000, 4160.00000000000000000000, 4164.10253906250000000000, 4163.58984375000000000000, 4113.84619140625000000000, 4157.94873046875000000000, 4160.51269531250000000000, 4150.76904296875000000000, 4150.76904296875000000000, 4164.10253906250000000000, 4136.41015625000000000000, 4190.76904296875000000000, 4134.35888671875000000000, 4161.53857421875000000000, 803.00000000000000000000, 2041.00000000000000000000, 2058.00000000000000000000, 0.00000000000000000000, 0.00000000000000000000, 1162.00000000000000000000, 99.00000000000000000000, 4.00000000000000000000, 4.00000000000000000000, 4.00000000000000000000, 4.00000000000000000000, 4.00000000000000000000, 4.00000000000000000000, 4.00000000000000000000, 2.00000000000000000000, 4.00000000000000000000, 4.00000000000000000000, 4.00000000000000000000, 4.00000000000000000000, 4.00000000000000000000, 0.00000000000000000000, 4.00000000000000000000, 4.00000000000000000000
13.00000000000000000000, 0.00000000000000000000, 4145.64111328125000000000, 4138.46142578125000000000, 4140.00000000000000000000, 4138.97412109375000000000, 4104.10253906250000000000, 4139.48730468750000000000, 4144.61523437500000000000, 4148.20507812500000000000, 4138.97412109375000000000, 4145.64111328125000000000, 4126.15380859375000000000, 4183.58984375000000000000, 4125.12792968750000000000, 4151.79492187500000000000, 632.00000000000000000000, 2040.00000000000000000000, 2060.00000000000000000000, 0.00000000000000000000, 0.00000000000000000000, 1162.00000000000000000000, 107.00000000000000000000, 4.00000000000000000000, 4.00000000000000000000, 4.00000000000000000000, 4.00000000000000000000, 4.00000000000000000000, 4.00000000000000000000, 4.00000000000000000000, 2.00000000000000000000, 4.00000000000000000000, 4.00000000000000000000, 4.00000000000000000000, 4.00000000000000000000, 4.00000000000000000000, 4.00000000000000000000, 4.00000000000000000000, 4.00000000000000000000
14.00000000000000000000, 0.00000000000000000000, 4132.30761718750000000000, 4135.89746093750000000000, 4129.74365234375000000000, 4135.89746093750000000000, 4110.25634765625000000000, 4130.25634765625000000000, 4136.92285156250000000000, 4144.10253906250000000000, 4139.48730468750000000000, 4140.51269531250000000000, 4117.94873046875000000000, 4180.51269531250000000000, 4126.15380859375000000000, 4138.97412109375000000000, 818.00000000000000000000, 2041.00000000000000000000, 2062.00000000000000000000, 0.00000000000000000000, 0.00000000000000000000, 1162.00000000000000000000, 115.00000000000000000000, 4.00000000000000000000, 4.00000000000000000000, 4.00000000000000000000, 4.00000000000000000000, 4.00000000000000000000, 4.00000000000000000000, 4.00000000000000000000, 2.00000000000000000000, 4.00000000000000000000, 4.00000000000000000000, 4.00000000000000000000, 4.00000000000000000000, 4.00000000000000000000, 4.00000000000000000000, 4.00000000000000000000, 4.00000000000000000000
15.00000000000000000000, 0.00000000000000000000, 4139.48730468750000000000, 4143.58984375000000000000, 4154.35888671875000000000, 4148.71777343750000000000, 4108.71777343750000000000, 4140.00000000000000000000, 4143.07666015625000000000, 4145.64111328125000000000, 4139.48730468750000000000, 4144.61523437500000000000, 4121.53857421875000000000, 4181.02539062500000000000, 4132.30761718750000000000, 4146.15380859375000000000, 776.00000000000000000000, 2041.00000000000000000000, 2062.00000000000000000000, 0.00000000000000000000, 0.00000000000000000000, 1162.00000000000000000000, 123.00000000000000000000, 4.00000000000000000000, 4.00000000000000000000, 4.00000000000000000000, 4.00000000000000000000, 4.00000000000000000000, 4.00000000000000000000, 4.00000000000000000000, 2.00000000000000000000, 4.00000000000000000000, 4.00000000000000000000, 4.00000000000000000000, 4.00000000000000000000, 4.00000000000000000000, 4.00000000000000000000, 4.00000000000000000000, 4.00000000000000000000
16.00000000000000000000, 0.00000000000000000000, 4147.17919921875000000000, 4127.69238281250000000000, 4146.15380859375000000000, 4143.07666015625000000000, 4101.53857421875000000000, 4141.53857421875000000000, 4142.56396484375000000000, 4148.20507812500000000000, 4134.87158203125000000000, 4137.43603515625000000000, 4125.12792968750000000000, 4180.00000000000000000000, 4124.61523437500000000000, 4146.66650390625000000000, 0.00000000000000000000, 2040.00000000000000000000, 2062.00000000000000000000, 0.00000000000000000000, 0.00000000000000000000, 1162.00000000000000000000, 131.00000000000000000000, 4.00000000000000000000, 4.00000000000000000000, 4.00000000000000000000, 4.00000000000000000000, 4.00000000000000000000, 4.00000000000000000000, 4.00000000000000000000, 2.00000000000000000000, 4.00000000000000000000, 4.00000000000000000000, 4.00000000000000000000, 4.00000000000000000000, 4.00000000000000000000, 4.00000000000000000000, 4.00000000000000000000, 4.00000000000000000000
17.00000000000000000000, 0.00000000000000000000, 4133.33300781250000000000, 4112.30761718750000000000, 4128.20507812500000000000, 4133.33300781250000000000, 4107.17919921875000000000, 4133.33300781250000000000, 4137.43603515625000000000, 4145.12792968750000000000, 4142.05126953125000000000, 4133.33300781250000000000, 4125.64111328125000000000, 4182.05126953125000000000, 4113.33300781250000000000, 4135.38427734375000000000, 0.00000000000000000000, 2040.00000000000000000000, 2063.00000000000000000000, 0.00000000000000000000, 0.00000000000000000000, 1162.00000000000000000000, 138.00000000000000000000, 4.00000000000000000000, 4.00000000000000000000, 4.00000000000000000000, 4.00000000000000000000, 4.00000000000000000000, 4.00000000000000000000, 4.00000000000000000000, 2.00000000000000000000, 4.00000000000000000000, 4.00000000000000000000, 4.00000000000000000000, 4.00000000000000000000, 4.00000000000000000000, 4.00000000000000000000, 4.00000000000000000000, 4.00000000000000000000
18.00000000000000000000, 0.00000000000000000000, 4133.84619140625000000000, 4121.53857421875000000000, 4146.66650390625000000000, 4132.82031250000000000000, 4115.38427734375000000000, 4142.05126953125000000000, 4146.66650390625000000000, 4144.10253906250000000000, 4150.25634765625000000000, 4147.17919921875000000000, 4134.35888671875000000000, 4184.10253906250000000000, 4124.10253906250000000000, 4137.94873046875000000000, 0.00000000000000000000, 2039.00000000000000000000, 2060.00000000000000000000, 0.00000000000000000000, 0.00000000000000000000, 1162.00000000000000000000, 146.00000000000000000000, 4.00000000000000000000, 4.00000000000000000000, 4.00000000000000000000, 4.00000000000000000000, 4.00000000000000000000, 4.00000000000000000000, 4.00000000000000000000, 2.00000000000000000000, 4.00000000000000000000, 4.00000000000000000000, 4.00000000000000000000, 4.00000000000000000000, 4.00000000000000000000, 4.00000000000000000000, 4.00000000000000000000, 4.00000000000000000000
19.00000000000000000000, 0.00000000000000000000, 4150.76904296875000000000, 4132.30761718750000000000, 4157.43603515625000000000, 4135.89746093750000000000, 4113.33300781250000000000, 4155.89746093750000000000, 4158.46142578125000000000, 4149.23046875000000000000, 4146.66650390625000000000, 4162.05126953125000000000, 4140.00000000000000000000, 4187.69238281250000000000, 4137.94873046875000000000, 4152.82031250000000000000, 0.00000000000000000000, 2038.00000000000000000000, 2062.00000000000000000000, 0.00000000000000000000, 0.00000000000000000000, 1162.00000000000000000000, 154.00000000000000000000, 4.00000000000000000000, 4.00000000000000000000, 4.00000000000000000000, 4.00000000000000000000, 4.00000000000000000000, 4.00000000000000000000, 4.00000000000000000000, 2.00000000000000000000, 4.00000000000000000000, 4.00000000000000000000, 4.00000000000000000000, 4.00000000000000000000, 4.00000000000000000000, 4.00000000000000000000, 4.00000000000000000000, 4.00000000000000000000
20.00000000000000000000, 0.00000000000000000000, 4150.25634765625000000000, 4130.76904296875000000000, 4138.46142578125000000000, 4143.07666015625000000000, 4107.69238281250000000000, 4152.30761718750000000000, 4153.33300781250000000000, 4149.74365234375000000000, 4143.07666015625000000000, 4162.05126953125000000000, 4130.25634765625000000000, 4189.74365234375000000000, 4128.71777343750000000000, 4153.33300781250000000000, 0.00000000000000000000, 2039.00000000000000000000, 2062.00000000000000000000, 0.00000000000000000000, 0.00000000000000000000, 1162.00000000000000000000, 162.00000000000000000000, 4.00000000000000000000, 4.00000000000000000000, 4.00000000000000000000, 4.00000000000000000000, 4.00000000000000000000, 4.00000000000000000000, 4.00000000000000000000, 2.00000000000000000000, 4.00000000000000000000, 4.00000000000000000000, 4.00000000000000000000, 4.00000000000000000000, 4.00000000000000000000, 4.00000000000000000000, 4.00000000000000000000, 4.00000000000000000000
21.00000000000000000000, 0.00000000000000000000, 4137.94873046875000000000, 4125.12792968750000000000, 4139.48730468750000000000, 4148.20507812500000000000, 4105.64111328125000000000, 4147.17919921875000000000, 4149.23046875000000000000, 4146.66650390625000000000, 4146.15380859375000000000, 4143.58984375000000000000, 4126.15380859375000000000, 4182.56396484375000000000, 4116.41015625000000000000, 4138.97412109375000000000, 0.00000000000000000000, 2039.00000000000000000000, 2061.00000000000000000000, 0.00000000000000000000, 0.00000000000000000000, 1162.00000000000000000000, 170.00000000000000000000, 4.00000000000000000000, 4.00000000000000000000, 4.00000000000000000000, 4.00000000000000000000, 4.00000000000000000000, 4.00000000000000000000, 4.00000000000000000000, 2.00000000000000000000, 4.00000000000000000000, 4.00000000000000000000, 4.00000000000000000000, 4.00000000000000000000, 4.00000000000000000000, 4.00000000000000000000, 4.00000000000000000000, 4.00000000000000000000
22.00000000000000000000, 0.00000000000000000000, 4140.51269531250000000000, 4118.97412109375000000000, 4150.25634765625000000000, 4137.43603515625000000000, 4103.07666015625000000000, 4145.64111328125000000000, 4146.66650390625000000000, 4146.66650390625000000000, 4139.48730468750000000000, 4130.25634765625000000000, 4125.64111328125000000000, 4178.46142578125000000000, 4115.38427734375000000000, 4134.35888671875000000000, 0.00000000000000000000, 2038.00000000000000000000, 2059.00000000000000000000, 0.00000000000000000000, 0.00000000000000000000, 1162.00000000000000000000, 178.00000000000000000000, 4.00000000000000000000, 4.00000000000000000000, 4.00000000000000000000, 4.00000000000000000000, 4.00000000000000000000, 4.00000000000000000000, 4.00000000000000000000, 2.00000000000000000000, 4.00000000000000000000, 4.00000000000000000000, 4.00000000000000000000, 4.00000000000000000000, 4.00000000000000000000, 4.00000000000000000000, 4.00000000000000000000, 4.00000000000000000000
23.00000000000000000000, 0.00000000000000000000, 4151.79492187500000000000, 4130.76904296875000000000, 4142.05126953125000000000, 4145.12792968750000000000, 4112.30761718750000000000, 4149.74365234375000000000, 4145.64111328125000000000, 4148.71777343750000000000, 4136.92285156250000000000, 4145.64111328125000000000, 4130.25634765625000000000, 4189.23046875000000000000, 4126.15380859375000000000, 4148.20507812500000000000, 0.00000000000000000000, 2039.00000000000000000000, 2057.00000000000000000000, 0.00000000000000000000, 0.00000000000000000000, 1162.00000000000000000000, 186.00000000000000000000, 4.00000000000000000000, 4.00000000000000000000, 4.00000000000000000000, 4.00000000000000000000, 4.00000000000000000000, 4.00000000000000000000, 4.00000000000000000000, 2.00000000000000000000, 4.00000000000000000000, 4.00000000000000000000, 4.00000000000000000000, 4.00000000000000000000, 4.00000000000000000000, 4.00000000000000000000, 4.00000000000000000000, 4.00000000000000000000
24.00000000000000000000, 0.00000000000000000000, 4149.23046875000000000000, 4142.05126953125000000000, 4148.71777343750000000000, 4164.61523437500000000000, 4117.43603515625000000000, 4156.92285156250000000000, 4151.28173828125000000000, 4149.23046875000000000000, 4144.61523437500000000000, 4143.07666015625000000000, 4144.10253906250000000000, 4203.58984375000000000000, 4132.82031250000000000000, 4157.94873046875000000000, 0.00000000000000000000, 2040.00000000000000000000, 2056.00000000000000000000, 0.00000000000000000000, 0.00000000000000000000, 1162.00000000000000000000, 194.00000000000000000000, 4.00000000000000000000, 4.00000000000000000000, 4.00000000000000000000, 4.00000000000000000000, 4.00000000000000000000, 4.00000000000000000000, 4.00000000000000000000, 2.00000000000000000000, 4.00000000000000000000, 4.00000000000000000000, 4.00000000000000000000, 4.00000000000000000000, 4.00000000000000000000, 4.00000000000000000000, 4.00000000000000000000, 4.00000000000000000000
25.00000000000000000000, 0.00000000000000000000, 4142.05126953125000000000, 4131.28173828125000000000, 4162.05126953125000000000, 4154.35888671875000000000, 4105.12792968750000000000, 4147.69238281250000000000, 4145.12792968750000000000, 4142.56396484375000000000, 4133.84619140625000000000, 4116.41015625000000000000, 4140.51269531250000000000, 4192.30761718750000000000, 4123.07666015625000000000, 4148.71777343750000000000, 0.00000000000000000000, 2040.00000000000000000000, 2056.00000000000000000000, 0.00000000000000000000, 0.00000000000000000000, 1162.00000000000000000000, 202.00000000000000000000, 4.00000000000000000000, 4.00000000000000000000, 4.00000000000000000000, 4.00000000000000000000, 4.00000000000000000000, 4.00000000000000000000, 4.00000000000000000000, 2.00000000000000000000, 4.00000000000000000000, 4.00000000000000000000, 4.00000000000000000000, 4.00000000000000000000, 4.00000000000000000000, 4.00000000000000000000, 4.00000000000000000000, 4.00000000000000000000
26.00000000000000000000, 0.00000000000000000000, 4150.76904296875000000000, 4121.53857421875000000000, 4150.25634765625000000000, 4133.33300781250000000000, 4101.53857421875000000000, 4130.25634765625000000000, 4130.25634765625000000000, 4136.41015625000000000000, 4115.38427734375000000000, 4122.56396484375000000000, 4121.02539062500000000000, 4181.02539062500000000000, 4116.92285156250000000000, 4139.48730468750000000000, 0.00000000000000000000, 2040.00000000000000000000, 2056.00000000000000000000, 0.00000000000000000000, 0.00000000000000000000, 1162.00000000000000000000, 209.00000000000000000000, 4.00000000000000000000, 4.00000000000000000000, 4.00000000000000000000, 4.00000000000000000000, 4.00000000000000000000, 4.00000000000000000000, 4.00000000000000000000, 2.00000000000000000000, 4.00000000000000000000, 4.00000000000000000000, 4.00000000000000000000, 4.00000000000000000000, 4.00000000000000000000, 4.00000000000000000000, 4.00000000000000000000, 4.00000000000000000000
27.00000000000000000000, 0.00000000000000000000, 4157.43603515625000000000, 4131.79492187500000000000, 4142.56396484375000000000, 4142.56396484375000000000, 4113.33300781250000000000, 4134.87158203125000000000, 4135.89746093750000000000, 4138.46142578125000000000, 4127.69238281250000000000, 4153.84619140625000000000, 4126.15380859375000000000, 4192.82031250000000000000, 4127.17919921875000000000, 4144.61523437500000000000, 0.00000000000000000000, 2040.00000000000000000000, 2057.00000000000000000000, 0.00000000000000000000, 0.00000000000000000000, 1162.00000000000000000000, 217.00000000000000000000, 4.00000000000000000000, 4.00000000000000000000, 4.00000000000000000000, 4.00000000000000000000, 4.00000000000000000000, 4.00000000000000000000, 4.00000000000000000000, 2.00000000000000000000, 4.00000000000000000000, 4.00000000000000000000, 4.00000000000000000000, 4.00000000000000000000, 4.00000000000000000000, 4.00000000000000000000, 4.00000000000000000000, 4.00000000000000000000
28.00000000000000000000, 0.00000000000000000000, 4152.82031250000000000000, 4136.41015625000000000000, 4167.17919921875000000000, 4158.97412109375000000000, 4110.25634765625000000000, 4145.64111328125000000000, 4151.79492187500000000000, 4144.61523437500000000000, 4144.10253906250000000000, 4154.87158203125000000000, 4147.69238281250000000000, 4203.58984375000000000000, 4129.74365234375000000000, 4155.89746093750000000000, 0.00000000000000000000, 2041.00000000000000000000, 2055.00000000000000000000, 0.00000000000000000000, 0.00000000000000000000, 1162.00000000000000000000, 225.00000000000000000000, 4.00000000000000000000, 4.00000000000000000000, 4.00000000000000000000, 4.00000000000000000000, 4.00000000000000000000, 4.00000000000000000000, 4.00000000000000000000, 2.00000000000000000000, 4.00000000000000000000, 4.00000000000000000000, 4.00000000000000000000, 4.00000000000000000000, 4.00000000000000000000, 4.00000000000000000000, 4.00000000000000000000, 4.00000000000000000000
29.00000000000000000000, 0.00000000000000000000, 4152.30761718750000000000, 4129.74365234375000000000, 4169.23046875000000000000, 4151.28173828125000000000, 4098.46142578125000000000, 4135.89746093750000000000, 4145.12792968750000000000, 4142.56396484375000000000, 4138.46142578125000000000, 4133.84619140625000000000, 4150.76904296875000000000, 4197.43603515625000000000, 4127.17919921875000000000, 4152.30761718750000000000, 0.00000000000000000000, 2042.00000000000000000000, 2054.00000000000000000000, 0.00000000000000000000, 0.00000000000000000000, 1162.00000000000000000000, 233.00000000000000000000, 4.00000000000000000000, 4.00000000000000000000, 4.00000000000000000000, 4.00000000000000000000, 4.00000000000000000000, 4.00000000000000000000, 4.00000000000000000000, 2.00000000000000000000, 4.00000000000000000000, 4.00000000000000000000, 4.00000000000000000000, 4.00000000000000000000, 4.00000000000000000000, 4.00000000000000000000, 4.00000000000000000000, 4.00000000000000000000
30.00000000000000000000, 0.00000000000000000000, 4153.84619140625000000000, 4131.79492187500000000000, 4150.76904296875000000000, 4144.10253906250000000000, 4103.58984375000000000000, 4139.48730468750000000000, 4142.05126953125000000000, 4146.15380859375000000000, 4145.12792968750000000000, 4139.48730468750000000000, 4146.66650390625000000000, 4203.58984375000000000000, 4137.94873046875000000000, 4150.25634765625000000000, 0.00000000000000000000, 2041.00000000000000000000, 2055.00000000000000000000, 0.00000000000000000000, 0.00000000000000000000, 1162.00000000000000000000, 241.00000000000000000000, 4.00000000000000000000, 4.00000000000000000000, 4.00000000000000000000, 4.00000000000000000000, 4.00000000000000000000, 4.00000000000000000000, 4.00000000000000000000, 2.00000000000000000000, 4.00000000000000000000, 4.00000000000000000000, 4.00000000000000000000, 4.00000000000000000000, 4.00000000000000000000, 4.00000000000000000000, 4.00000000000000000000, 4.00000000000000000000
31.00000000000000000000, 0.00000000000000000000, 4147.17919921875000000000, 4137.94873046875000000000, 4156.41015625000000000000, 4153.33300781250000000000, 4112.30761718750000000000, 4154.87158203125000000000, 4154.35888671875000000000, 4150.25634765625000000000, 4162.56396484375000000000, 4168.20507812500000000000, 4150.76904296875000000000, 4207.69238281250000000000, 4144.10253906250000000000, 4163.58984375000000000000, 0.00000000000000000000, 2042.00000000000000000000, 2057.00000000000000000000, 0.00000000000000000000, 0.00000000000000000000, 1162.00000000000000000000, 249.00000000000000000000, 4.00000000000000000000, 4.00000000000000000000, 4.00000000000000000000, 4.00000000000000000000, 4.00000000000000000000, 4.00000000000000000000, 4.00000000000000000000, 2.00000000000000000000, 4.00000000000000000000, 4.00000000000000000000, 4.00000000000000000000, 4.00000000000000000000, 4.00000000000000000000, 4.00000000000000000000, 4.00000000000000000000, 4.00000000000000000000
32.00000000000000000000, 0.00000000000000000000, 4149.74365234375000000000, 4131.79492187500000000000, 4164.10253906250000000000, 4150.76904296875000000000, 4106.66650390625000000000, 4144.61523437500000000000, 4154.87158203125000000000, 4147.17919921875000000000, 4153.84619140625000000000, 4165.12792968750000000000, 4144.10253906250000000000, 4191.79492187500000000000, 4130.76904296875000000000, 4160.51269531250000000000, 0.00000000000000000000, 2045.00000000000000000000, 2057.00000000000000000000, 0.00000000000000000000, 0.00000000000000000000, 1162.00000000000000000000, 257.00000000000000000000, 4.00000000000000000000, 4.00000000000000000000, 4.00000000000000000000, 4.00000000000000000000, 4.00000000000000000000, 4.00000000000000000000, 4.00000000000000000000, 2.00000000000000000000, 4.00000000000000000000, 4.00000000000000000000, 4.00000000000000000000, 4.00000000000000000000, 4.00000000000000000000, 4.00000000000000000000, 4.00000000000000000000, 4.00000000000000000000
33.00000000000000000000, 0.00000000000000000000, 4157.94873046875000000000, 4131.79492187500000000000, 4145.64111328125000000000, 4142.05126953125000000000, 4110.76904296875000000000, 4136.41015625000000000000, 4143.58984375000000000000, 4144.10253906250000000000, 4138.97412109375000000000, 4140.00000000000000000000, 4139.48730468750000000000, 4186.66650390625000000000, 4127.17919921875000000000, 4142.56396484375000000000, 0.00000000000000000000, 2045.00000000000000000000, 2058.00000000000000000000, 0.00000000000000000000, 0.00000000000000000000, 1162.00000000000000000000, 264.00000000000000000000, 4.00000000000000000000, 4.00000000000000000000, 4.00000000000000000000, 4.00000000000000000000, 4.00000000000000000000, 4.00000000000000000000, 4.00000000000000000000, 2.00000000000000000000, 4.00000000000000000000, 4.00000000000000000000, 4.00000000000000000000, 4.00000000000000000000, 4.00000000000000000000, 4.00000000000000000000, 4.00000000000000000000, 4.00000000000000000000
34.00000000000000000000, 0.00000000000000000000, 4161.02539062500000000000, 4146.66650390625000000000, 4152.82031250000000000000, 4151.79492187500000000000, 4115.89746093750000000000, 4157.43603515625000000000, 4147.69238281250000000000, 4146.66650390625000000000, 4145.64111328125000000000, 4144.10253906250000000000, 4153.33300781250000000000, 4200.51269531250000000000, 4137.94873046875000000000, 4151.28173828125000000000, 0.00000000000000000000, 2042.00000000000000000000, 2059.00000000000000000000, 0.00000000000000000000, 0.00000000000000000000, 1162.00000000000000000000, 272.00000000000000000000, 4.00000000000000000000, 4.00000000000000000000, 4.00000000000000000000, 4.00000000000000000000, 4.00000000000000000000, 4.00000000000000000000, 4.00000000000000000000, 2.00000000000000000000, 4.00000000000000000000, 4.00000000000000000000, 4.00000000000000000000, 4.00000000000000000000, 4.00000000000000000000, 4.00000000000000000000, 4.00000000000000000000, 4.00000000000000000000
35.00000000000000000000, 0.00000000000000000000, 4157.94873046875000000000, 4148.71777343750000000000, 4174.87158203125000000000, 4160.00000000000000000000, 4105.12792968750000000000, 4155.38427734375000000000, 4153.33300781250000000000, 4147.17919921875000000000, 4150.25634765625000000000, 4160.00000000000000000000, 4154.35888671875000000000, 4198.97412109375000000000, 4140.51269531250000000000, 4164.61523437500000000000, 0.00000000000000000000, 2042.00000000000000000000, 2059.00000000000000000000, 0.00000000000000000000, 0.00000000000000000000, 1162.00000000000000000000, 280.00000000000000000000, 4.00000000000000000000, 4.00000000000000000000, 4.00000000000000000000, 4.00000000000000000000, 4.00000000000000000000, 4.00000000000000000000, 4.00000000000000000000, 2.00000000000000000000, 4.00000000000000000000, 4.00000000000000000000, 4.00000000000000000000, 4.00000000000000000000, 4.00000000000000000000, 4.00000000000000000000, 4.00000000000000000000, 4.00000000000000000000
36.00000000000000000000, 0.00000000000000000000, 4158.46142578125000000000, 4137.43603515625000000000, 4158.46142578125000000000, 4148.71777343750000000000, 4093.33325195312500000000, 4120.51269531250000000000, 4136.41015625000000000000, 4143.07666015625000000000, 4137.43603515625000000000, 4149.74365234375000000000, 4134.35888671875000000000, 4191.28173828125000000000, 4133.33300781250000000000, 4150.25634765625000000000, 0.00000000000000000000, 2042.00000000000000000000, 2058.00000000000000000000, 0.00000000000000000000, 0.00000000000000000000, 1162.00000000000000000000, 288.00000000000000000000, 4.00000000000000000000, 4.00000000000000000000, 4.00000000000000000000, 4.00000000000000000000, 4.00000000000000000000, 4.00000000000000000000, 4.00000000000000000000, 2.00000000000000000000, 4.00000000000000000000, 4.00000000000000000000, 4.00000000000000000000, 4.00000000000000000000, 4.00000000000000000000, 4.00000000000000000000, 4.00000000000000000000, 4.00000000000000000000
37.00000000000000000000, 0.00000000000000000000, 4169.23046875000000000000, 4142.05126953125000000000, 4147.69238281250000000000, 4150.76904296875000000000, 4097.43603515625000000000, 4125.64111328125000000000, 4130.25634765625000000000, 4144.10253906250000000000, 4140.51269531250000000000, 4148.20507812500000000000, 4138.46142578125000000000, 4201.53857421875000000000, 4140.00000000000000000000, 4153.33300781250000000000, 0.00000000000000000000, 2042.00000000000000000000, 2056.00000000000000000000, 0.00000000000000000000, 0.00000000000000000000, 1162.00000000000000000000, 296.00000000000000000000, 4.00000000000000000000, 4.00000000000000000000, 4.00000000000000000000, 4.00000000000000000000, 4.00000000000000000000, 4.00000000000000000000, 4.00000000000000000000, 2.00000000000000000000, 4.00000000000000000000, 4.00000000000000000000, 4.00000000000000000000, 4.00000000000000000000, 4.00000000000000000000, 4.00000000000000000000, 4.00000000000000000000, 4.00000000000000000000
38.00000000000000000000, 0.00000000000000000000, 4167.69238281250000000000, 4149.23046875000000000000, 4173.84619140625000000000, 4165.12792968750000000000, 4104.10253906250000000000, 4155.89746093750000000000, 4151.28173828125000000000, 4148.20507812500000000000, 4153.84619140625000000000, 4157.43603515625000000000, 4155.89746093750000000000, 4205.64111328125000000000, 4142.05126953125000000000, 4169.74365234375000000000, 0.00000000000000000000, 2040.00000000000000000000, 2055.00000000000000000000, 0.00000000000000000000, 0.00000000000000000000, 1162.00000000000000000000, 304.00000000000000000000, 4.00000000000000000000, 4.00000000000000000000, 4.00000000000000000000, 4.00000000000000000000, 4.00000000000000000000, 4.00000000000000000000, 4.00000000000000000000, 2.00000000000000000000, 4.00000000000000000000, 4.00000000000000000000, 4.00000000000000000000, 4.00000000000000000000, 4.00000000000000000000, 4.00000000000000000000, 4.00000000000000000000, 4.00000000000000000000
39.00000000000000000000, 0.00000000000000000000, 4154.35888671875000000000, 4141.53857421875000000000, 4175.38427734375000000000, 4160.51269531250000000000, 4107.17919921875000000000, 4152.82031250000000000000, 4156.92285156250000000000, 4145.12792968750000000000, 4146.15380859375000000000, 4145.64111328125000000000, 4144.61523437500000000000, 4193.33300781250000000000, 4127.69238281250000000000, 4158.97412109375000000000, 0.00000000000000000000, 2038.00000000000000000000, 2056.00000000000000000000, 0.00000000000000000000, 0.00000000000000000000, 1162.00000000000000000000, 312.00000000000000000000, 4.00000000000000000000, 4.00000000000000000000, 4.00000000000000000000, 4.00000000000000000000, 4.00000000000000000000, 4.00000000000000000000, 4.00000000000000000000, 2.00000000000000000000, 4.00000000000000000000, 4.00000000000000000000, 4.00000000000000000000, 4.00000000000000000000, 4.00000000000000000000, 4.00000000000000000000, 4.00000000000000000000, 4.00000000000000000000
40.00000000000000000000, 0.00000000000000000000, 4155.38427734375000000000, 4139.48730468750000000000, 4151.79492187500000000000, 4148.71777343750000000000, 4112.82031250000000000000, 4137.43603515625000000000, 4135.89746093750000000000, 4142.05126953125000000000, 4138.46142578125000000000, 4137.94873046875000000000, 4134.87158203125000000000, 4189.74365234375000000000, 4129.23046875000000000000, 4146.15380859375000000000, 0.00000000000000000000, 2039.00000000000000000000, 2056.00000000000000000000, 0.00000000000000000000, 0.00000000000000000000, 1162.00000000000000000000, 320.00000000000000000000, 4.00000000000000000000, 4.00000000000000000000, 4.00000000000000000000, 4.00000000000000000000, 4.00000000000000000000, 4.00000000000000000000, 4.00000000000000000000, 2.00000000000000000000, 4.00000000000000000000, 4.00000000000000000000, 4.00000000000000000000, 4.00000000000000000000, 4.00000000000000000000, 4.00000000000000000000, 4.00000000000000000000, 4.00000000000000000000
41.00000000000000000000, 0.00000000000000000000, 4160.51269531250000000000, 4140.00000000000000000000, 4161.02539062500000000000, 4149.74365234375000000000, 4108.20507812500000000000, 4137.94873046875000000000, 4131.79492187500000000000, 4145.12792968750000000000, 4145.12792968750000000000, 4141.02539062500000000000, 4148.20507812500000000000, 4196.92285156250000000000, 4137.43603515625000000000, 4152.82031250000000000000, 0.00000000000000000000, 2038.00000000000000000000, 2057.00000000000000000000, 0.00000000000000000000, 0.00000000000000000000, 1162.00000000000000000000, 328.00000000000000000000, 4.00000000000000000000, 4.00000000000000000000, 4.00000000000000000000, 4.00000000000000000000, 4.00000000000000000000, 4.00000000000000000000, 4.00000000000000000000, 2.00000000000000000000, 4.00000000000000000000, 4.00000000000000000000, 4.00000000000000000000, 4.00000000000000000000, 4.00000000000000000000, 4.00000000000000000000, 4.00000000000000000000, 4.00000000000000000000
42.00000000000000000000, 0.00000000000000000000, 4145.12792968750000000000, 4121.53857421875000000000, 4163.07666015625000000000, 4145.12792968750000000000, 4095.38452148437500000000, 4140.51269531250000000000, 4147.17919921875000000000, 4146.15380859375000000000, 4139.48730468750000000000, 4126.15380859375000000000, 4134.35888671875000000000, 4186.15380859375000000000, 4118.97412109375000000000, 4140.51269531250000000000, 0.00000000000000000000, 2038.00000000000000000000, 2057.00000000000000000000, 0.00000000000000000000, 0.00000000000000000000, 1162.00000000000000000000, 335.00000000000000000000, 4.00000000000000000000, 4.00000000000000000000, 4.00000000000000000000, 4.00000000000000000000, 4.00000000000000000000, 4.00000000000000000000, 4.00000000000000000000, 2.00000000000000000000, 4.00000000000000000000, 4.00000000000000000000, 4.00000000000000000000, 4.00000000000000000000, 4.00000000000000000000, 4.00000000000000000000, 4.00000000000000000000, 4.00000000000000000000
43.00000000000000000000, 0.00000000000000000000, 4135.89746093750000000000, 4110.76904296875000000000, 4134.35888671875000000000, 4125.64111328125000000000, 4094.87158203125000000000, 4134.87158203125000000000, 4147.69238281250000000000, 4143.58984375000000000000, 4126.66650390625000000000, 4115.89746093750000000000, 4106.66650390625000000000, 4171.79492187500000000000, 4100.00000000000000000000, 4118.46142578125000000000, 0.00000000000000000000, 2039.00000000000000000000, 2059.00000000000000000000, 0.00000000000000000000, 0.00000000000000000000, 1162.00000000000000000000, 343.00000000000000000000, 4.00000000000000000000, 4.00000000000000000000, 4.00000000000000000000, 4.00000000000000000000, 4.00000000000000000000, 4.00000000000000000000, 4.00000000000000000000, 2.00000000000000000000, 4.00000000000000000000, 4.00000000000000000000, 4.00000000000000000000, 4.00000000000000000000, 4.00000000000000000000, 4.00000000000000000000, 4.00000000000000000000, 4.00000000000000000000
44.00000000000000000000, 0.00000000000000000000, 4142.05126953125000000000, 4123.58984375000000000000, 4135.89746093750000000000, 4126.15380859375000000000, 4097.43603515625000000000, 4132.30761718750000000000, 4137.94873046875000000000, 4144.10253906250000000000, 4133.84619140625000000000, 4132.30761718750000000000, 4125.12792968750000000000, 4174.35888671875000000000, 4110.76904296875000000000, 4131.79492187500000000000, 0.00000000000000000000, 2039.00000000000000000000, 2058.00000000000000000000, 0.00000000000000000000, 0.00000000000000000000, 1162.00000000000000000000, 351.00000000000000000000, 4.00000000000000000000, 4.00000000000000000000, 4.00000000000000000000, 4.00000000000000000000, 4.00000000000000000000, 4.00000000000000000000, 4.00000000000000000000, 2.00000000000000000000, 4.00000000000000000000, 4.00000000000000000000, 4.00000000000000000000, 4.00000000000000000000, 4.00000000000000000000, 4.00000000000000000000, 4.00000000000000000000, 4.00000000000000000000
45.00000000000000000000, 0.00000000000000000000, 4151.28173828125000000000, 4130.25634765625000000000, 4167.69238281250000000000, 4145.12792968750000000000, 4092.30761718750000000000, 4140.00000000000000000000, 4140.51269531250000000000, 4146.15380859375000000000, 4143.58984375000000000000, 4141.53857421875000000000, 4151.28173828125000000000, 4184.10253906250000000000, 4126.15380859375000000000, 4153.84619140625000000000, 0.00000000000000000000, 2040.00000000000000000000, 2057.00000000000000000000, 0.00000000000000000000, 0.00000000000000000000, 1162.00000000000000000000, 358.00000000000000000000, 4.00000000000000000000, 4.00000000000000000000, 4.00000000000000000000, 4.00000000000000000000, 4.00000000000000000000, 4.00000000000000000000, 4.00000000000000000000, 2.00000000000000000000, 4.00000000000000000000, 4.00000000000000000000, 4.00000000000000000000, 4.00000000000000000000, 4.00000000000000000000, 4.00000000000000000000, 4.00000000000000000000, 4.00000000000000000000
46.00000000000000000000, 0.00000000000000000000, 4151.79492187500000000000, 4125.64111328125000000000, 4154.87158203125000000000, 4143.58984375000000000000, 4100.51269531250000000000, 4150.25634765625000000000, 4145.64111328125000000000, 4143.58984375000000000000, 4139.48730468750000000000, 4141.53857421875000000000, 4137.43603515625000000000, 4185.12792968750000000000, 4128.71777343750000000000, 4148.20507812500000000000, 0.00000000000000000000, 2040.00000000000000000000, 2058.00000000000000000000, 0.00000000000000000000, 0.00000000000000000000, 1162.00000000000000000000, 367.00000000000000000000, 4.00000000000000000000, 4.00000000000000000000, 4.00000000000000000000, 4.00000000000000000000, 4.00000000000000000000, 4.00000000000000000000, 4.00000000000000000000, 2.00000000000000000000, 4.00000000000000000000, 4.00000000000000000000, 4.00000000000000000000, 4.00000000000000000000, 4.00000000000000000000, 4.00000000000000000000, 4.00000000000000000000, 4.00000000000000000000
47.00000000000000000000, 0.00000000000000000000, 4149.74365234375000000000, 4127.69238281250000000000, 4133.84619140625000000000, 4133.33300781250000000000, 4110.76904296875000000000, 4145.12792968750000000000, 4144.61523437500000000000, 4142.05126953125000000000, 4133.84619140625000000000, 4145.64111328125000000000, 4123.07666015625000000000, 4187.17919921875000000000, 4124.61523437500000000000, 4142.05126953125000000000, 0.00000000000000000000, 2039.00000000000000000000, 2059.00000000000000000000, 0.00000000000000000000, 0.00000000000000000000, 1162.00000000000000000000, 375.00000000000000000000, 4.00000000000000000000, 4.00000000000000000000, 4.00000000000000000000, 4.00000000000000000000, 4.00000000000000000000, 4.00000000000000000000, 4.00000000000000000000, 2.00000000000000000000, 4.00000000000000000000, 4.00000000000000000000, 4.00000000000000000000, 4.00000000000000000000, 4.00000000000000000000, 4.00000000000000000000, 4.00000000000000000000, 4.00000000000000000000
48.00000000000000000000, 0.00000000000000000000, 4152.30761718750000000000, 4132.82031250000000000000, 4150.76904296875000000000, 4145.64111328125000000000, 4101.53857421875000000000, 4138.46142578125000000000, 4144.10253906250000000000, 4138.46142578125000000000, 4137.43603515625000000000, 4143.07666015625000000000, 4135.38427734375000000000, 4187.17919921875000000000, 4125.64111328125000000000, 4151.79492187500000000000, 0.00000000000000000000, 2040.00000000000000000000, 2058.00000000000000000000, 0.00000000000000000000, 0.00000000000000000000, 1162.00000000000000000000, 383.00000000000000000000, 4.00000000000000000000, 4.00000000000000000000, 4.00000000000000000000, 4.00000000000000000000, 4.00000000000000000000, 4.00000000000000000000, 4.00000000000000000000, 2.00000000000000000000, 4.00000000000000000000, 4.00000000000000000000, 4.00000000000000000000, 4.00000000000000000000, 4.00000000000000000000, 4.00000000000000000000, 4.00000000000000000000, 4.00000000000000000000
49.00000000000000000000, 0.00000000000000000000, 4150.76904296875000000000, 4127.17919921875000000000, 4157.94873046875000000000, 4146.66650390625000000000, 4093.84594726562500000000, 4143.58984375000000000000, 4147.17919921875000000000, 4140.00000000000000000000, 4140.51269531250000000000, 4128.20507812500000000000, 4135.38427734375000000000, 4181.53857421875000000000, 4123.58984375000000000000, 4146.66650390625000000000, 0.00000000000000000000, 2041.00000000000000000000, 2059.00000000000000000000, 0.00000000000000000000, 0.00000000000000000000, 1162.00000000000000000000, 391.00000000000000000000, 4.00000000000000000000, 4.00000000000000000000, 4.00000000000000000000, 4.00000000000000000000, 4.00000000000000000000, 4.00000000000000000000, 4.00000000000000000000, 2.00000000000000000000, 4.00000000000000000000, 4.00000000000000000000, 4.00000000000000000000, 4.00000000000000000000, 4.00000000000000000000, 4.00000000000000000000, 4.00000000000000000000, 4.00000000000000000000
50.00000000000000000000, 0.00000000000000000000, 4141.53857421875000000000, 4118.97412109375000000000, 4130.76904296875000000000, 4129.74365234375000000000, 4098.46142578125000000000, 4137.94873046875000000000, 4142.56396484375000000000, 4142.05126953125000000000, 4137.43603515625000000000, 4117.43603515625000000000, 4123.07666015625000000000, 4175.38427734375000000000, 4109.23046875000000000000, 4126.66650390625000000000, 0.00000000000000000000, 2043.00000000000000000000, 2061.00000000000000000000, 0.00000000000000000000, 0.00000000000000000000, 1162.00000000000000000000, 398.00000000000000000000, 4.00000000000000000000, 4.00000000000000000000, 4.00000000000000000000, 4.00000000000000000000, 4.00000000000000000000, 4.00000000000000000000, 4.00000000000000000000, 2.00000000000000000000, 4.00000000000000000000, 4.00000000000000000000, 4.00000000000000000000, 4.00000000000000000000, 4.00000000000000000000, 4.00000000000000000000, 4.00000000000000000000, 4.00000000000000000000
51.00000000000000000000, 0.00000000000000000000, 4140.00000000000000000000, 4121.02539062500000000000, 4135.89746093750000000000, 4133.84619140625000000000, 4093.84594726562500000000, 4131.79492187500000000000, 4142.05126953125000000000, 4144.61523437500000000000, 4141.53857421875000000000, 4131.28173828125000000000, 4128.20507812500000000000, 4178.97412109375000000000, 4108.71777343750000000000, 4130.25634765625000000000, 0.00000000000000000000, 2040.00000000000000000000, 2060.00000000000000000000, 0.00000000000000000000, 0.00000000000000000000, 1162.00000000000000000000, 406.00000000000000000000, 4.00000000000000000000, 4.00000000000000000000, 4.00000000000000000000, 4.00000000000000000000, 4.00000000000000000000, 4.00000000000000000000, 4.00000000000000000000, 2.00000000000000000000, 4.00000000000000000000, 4.00000000000000000000, 4.00000000000000000000, 4.00000000000000000000, 4.00000000000000000000, 4.00000000000000000000, 4.00000000000000000000, 4.00000000000000000000
52.00000000000000000000, 0.00000000000000000000, 4142.56396484375000000000, 4129.74365234375000000000, 4161.53857421875000000000, 4145.64111328125000000000, 4088.20507812500000000000, 4147.69238281250000000000, 4153.33300781250000000000, 4149.74365234375000000000, 4153.33300781250000000000, 4155.38427734375000000000, 4142.56396484375000000000, 4184.10253906250000000000, 4129.23046875000000000000, 4149.23046875000000000000, 0.00000000000000000000, 2040.00000000000000000000, 2059.00000000000000000000, 0.00000000000000000000, 0.00000000000000000000, 1162.00000000000000000000, 414.00000000000000000000, 4.00000000000000000000, 4.00000000000000000000, 4.00000000000000000000, 4.00000000000000000000, 4.00000000000000000000, 4.00000000000000000000, 4.00000000000000000000, 2.00000000000000000000, 4.00000000000000000000, 4.00000000000000000000, 4.00000000000000000000, 4.00000000000000000000, 4.00000000000000000000, 4.00000000000000000000, 4.00000000000000000000, 4.00000000000000000000
53.00000000000000000000, 0.00000000000000000000, 4145.64111328125000000000, 4129.74365234375000000000, 4149.74365234375000000000, 4141.02539062500000000000, 4095.89721679687500000000, 4157.94873046875000000000, 4155.89746093750000000000, 4152.82031250000000000000, 4152.82031250000000000000, 4157.94873046875000000000, 4144.10253906250000000000, 4186.66650390625000000000, 4129.74365234375000000000, 4150.25634765625000000000, 0.00000000000000000000, 2042.00000000000000000000, 2058.00000000000000000000, 0.00000000000000000000, 0.00000000000000000000, 1162.00000000000000000000, 422.00000000000000000000, 4.00000000000000000000, 4.00000000000000000000, 4.00000000000000000000, 4.00000000000000000000, 4.00000000000000000000, 4.00000000000000000000, 4.00000000000000000000, 2.00000000000000000000, 4.00000000000000000000, 4.00000000000000000000, 4.00000000000000000000, 4.00000000000000000000, 4.00000000000000000000, 4.00000000000000000000, 4.00000000000000000000, 4.00000000000000000000
54.00000000000000000000, 0.00000000000000000000, 4154.35888671875000000000, 4126.66650390625000000000, 4138.97412109375000000000, 4142.05126953125000000000, 4096.92285156250000000000, 4143.58984375000000000000, 4151.28173828125000000000, 4148.71777343750000000000, 4143.58984375000000000000, 4149.23046875000000000000, 4144.10253906250000000000, 4189.74365234375000000000, 4120.00000000000000000000, 4142.56396484375000000000, 0.00000000000000000000, 2041.00000000000000000000, 2058.00000000000000000000, 0.00000000000000000000, 0.00000000000000000000, 1162.00000000000000000000, 430.00000000000000000000, 4.00000000000000000000, 4.00000000000000000000, 4.00000000000000000000, 4.00000000000000000000, 4.00000000000000000000, 4.00000000000000000000, 4.00000000000000000000, 2.00000000000000000000, 4.00000000000000000000, 4.00000000000000000000, 4.00000000000000000000, 4.00000000000000000000, 4.00000000000000000000, 4.00000000000000000000, 4.00000000000000000000, 4.00000000000000000000
55.00000000000000000000, 0.00000000000000000000, 4162.05126953125000000000, 4131.28173828125000000000, 4162.05126953125000000000, 4150.76904296875000000000, 4093.84594726562500000000, 4135.89746093750000000000, 4152.30761718750000000000, 4146.15380859375000000000, 4146.66650390625000000000, 4157.43603515625000000000, 4150.25634765625000000000, 4191.28173828125000000000, 4135.89746093750000000000, 4147.69238281250000000000, 0.00000000000000000000, 2041.00000000000000000000, 2059.00000000000000000000, 0.00000000000000000000, 0.00000000000000000000, 1162.00000000000000000000, 438.00000000000000000000, 4.00000000000000000000, 4.00000000000000000000, 4.00000000000000000000, 4.00000000000000000000, 4.00000000000000000000, 4.00000000000000000000, 4.00000000000000000000, 2.00000000000000000000, 4.00000000000000000000, 4.00000000000000000000, 4.00000000000000000000, 4.00000000000000000000, 4.00000000000000000000, 4.00000000000000000000, 4.00000000000000000000, 4.00000000000000000000
56.00000000000000000000, 0.00000000000000000000, 4152.82031250000000000000, 4136.41015625000000000000, 4166.66650390625000000000, 4147.69238281250000000000, 4101.53857421875000000000, 4152.82031250000000000000, 4160.00000000000000000000, 4150.25634765625000000000, 4154.87158203125000000000, 4159.48730468750000000000, 4145.12792968750000000000, 4191.28173828125000000000, 4142.05126953125000000000, 4157.94873046875000000000, 0.00000000000000000000, 2040.00000000000000000000, 2059.00000000000000000000, 0.00000000000000000000, 0.00000000000000000000, 1162.00000000000000000000, 446.00000000000000000000, 4.00000000000000000000, 4.00000000000000000000, 4.00000000000000000000, 4.00000000000000000000, 4.00000000000000000000, 4.00000000000000000000, 4.00000000000000000000, 2.00000000000000000000, 4.00000000000000000000, 4.00000000000000000000, 4.00000000000000000000, 4.00000000000000000000, 4.00000000000000000000, 4.00000000000000000000, 4.00000000000000000000, 4.00000000000000000000
57.00000000000000000000, 0.00000000000000000000, 4143.07666015625000000000, 4132.82031250000000000000, 4143.07666015625000000000, 4143.07666015625000000000, 4105.64111328125000000000, 4151.28173828125000000000, 4155.38427734375000000000, 4149.74365234375000000000, 4145.12792968750000000000, 4146.66650390625000000000, 4132.30761718750000000000, 4182.56396484375000000000, 4119.48730468750000000000, 4152.30761718750000000000, 0.00000000000000000000, 2041.00000000000000000000, 2058.00000000000000000000, 0.00000000000000000000, 0.00000000000000000000, 1162.00000000000000000000, 453.00000000000000000000, 4.00000000000000000000, 4.00000000000000000000, 4.00000000000000000000, 4.00000000000000000000, 4.00000000000000000000, 4.00000000000000000000, 4.00000000000000000000, 2.00000000000000000000, 4.00000000000000000000, 4.00000000000000000000, 4.00000000000000000000, 4.00000000000000000000, 4.00000000000000000000, 4.00000000000000000000, 4.00000000000000000000, 4.00000000000000000000
58.00000000000000000000, 0.00000000000000000000, 4144.10253906250000000000, 4130.25634765625000000000, 4146.66650390625000000000, 4147.69238281250000000000, 4095.38452148437500000000, 4124.61523437500000000000, 4143.58984375000000000000, 4145.64111328125000000000, 4132.82031250000000000000, 4141.02539062500000000000, 4130.25634765625000000000, 4175.89746093750000000000, 4113.33300781250000000000, 4144.10253906250000000000, 0.00000000000000000000, 2039.00000000000000000000, 2057.00000000000000000000, 0.00000000000000000000, 0.00000000000000000000, 1162.00000000000000000000, 461.00000000000000000000, 4.00000000000000000000, 4.00000000000000000000, 4.00000000000000000000, 4.00000000000000000000, 4.00000000000000000000, 4.00000000000000000000, 4.00000000000000000000, 2.00000000000000000000, 4.00000000000000000000, 4.00000000000000000000, 4.00000000000000000000, 4.00000000000000000000, 4.00000000000000000000, 4.00000000000000000000, 4.00000000000000000000, 4.00000000000000000000
59.00000000000000000000, 0.00000000000000000000, 4150.25634765625000000000, 4138.97412109375000000000, 4157.94873046875000000000, 4149.74365234375000000000, 4096.41015625000000000000, 4133.33300781250000000000, 4143.58984375000000000000, 4147.17919921875000000000, 4143.07666015625000000000, 4149.74365234375000000000, 4137.94873046875000000000, 4181.53857421875000000000, 4134.35888671875000000000, 4151.79492187500000000000, 0.00000000000000000000, 2040.00000000000000000000, 2057.00000000000000000000, 0.00000000000000000000, 0.00000000000000000000, 1162.00000000000000000000, 469.00000000000000000000, 4.00000000000000000000, 4.00000000000000000000, 4.00000000000000000000, 4.00000000000000000000, 4.00000000000000000000, 4.00000000000000000000, 4.00000000000000000000, 2.00000000000000000000, 4.00000000000000000000, 4.00000000000000000000, 4.00000000000000000000, 4.00000000000000000000, 4.00000000000000000000, 4.00000000000000000000, 4.00000000000000000000, 4.00000000000000000000
60.00000000000000000000, 0.00000000000000000000, 4160.51269531250000000000, 4147.17919921875000000000, 4147.17919921875000000000, 4151.28173828125000000000, 4110.76904296875000000000, 4169.23046875000000000000, 4151.79492187500000000000, 4151.28173828125000000000, 4156.41015625000000000000, 4161.53857421875000000000, 4146.15380859375000000000, 4190.76904296875000000000, 4145.64111328125000000000, 4161.53857421875000000000, 0.00000000000000000000, 2040.00000000000000000000, 2059.00000000000000000000, 0.00000000000000000000, 0.00000000000000000000, 1162.00000000000000000000, 477.00000000000000000000, 4.00000000000000000000, 4.00000000000000000000, 4.00000000000000000000, 4.00000000000000000000, 4.00000000000000000000, 4.00000000000000000000, 4.00000000000000000000, 2.00000000000000000000, 4.00000000000000000000, 4.00000000000000000000, 4.00000000000000000000, 4.00000000000000000000, 4.00000000000000000000, 4.00000000000000000000, 4.00000000000000000000, 4.00000000000000000000
61.00000000000000000000, 0.00000000000000000000, 4159.48730468750000000000, 4147.17919921875000000000, 4148.20507812500000000000, 4155.38427734375000000000, 4112.82031250000000000000, 4166.66650390625000000000, 4156.92285156250000000000, 4150.76904296875000000000, 4153.33300781250000000000, 4160.00000000000000000000, 4149.74365234375000000000, 4183.58984375000000000000, 4139.48730468750000000000, 4155.38427734375000000000, 0.00000000000000000000, 2039.00000000000000000000, 2058.00000000000000000000, 0.00000000000000000000, 0.00000000000000000000, 1162.00000000000000000000, 485.00000000000000000000, 4.00000000000000000000, 4.00000000000000000000, 4.00000000000000000000, 4.00000000000000000000, 4.00000000000000000000, 4.00000000000000000000, 4.00000000000000000000, 2.00000000000000000000, 4.00000000000000000000, 4.00000000000000000000, 4.00000000000000000000, 4.00000000000000000000, 4.00000000000000000000, 4.00000000000000000000, 4.00000000000000000000, 4.00000000000000000000
62.00000000000000000000, 0.00000000000000000000, 4154.87158203125000000000, 4141.53857421875000000000, 4160.51269531250000000000, 4146.66650390625000000000, 4107.69238281250000000000, 4149.23046875000000000000, 4155.38427734375000000000, 4149.74365234375000000000, 4147.17919921875000000000, 4152.82031250000000000000, 4143.07666015625000000000, 4174.87158203125000000000, 4131.28173828125000000000, 4150.25634765625000000000, 0.00000000000000000000, 2039.00000000000000000000, 2057.00000000000000000000, 0.00000000000000000000, 0.00000000000000000000, 1162.00000000000000000000, 493.00000000000000000000, 4.00000000000000000000, 4.00000000000000000000, 4.00000000000000000000, 4.00000000000000000000, 4.00000000000000000000, 4.00000000000000000000, 4.00000000000000000000, 2.00000000000000000000, 4.00000000000000000000, 4.00000000000000000000, 4.00000000000000000000, 4.00000000000000000000, 4.00000000000000000000, 4.00000000000000000000, 4.00000000000000000000, 4.00000000000000000000
63.00000000000000000000, 0.00000000000000000000, 4152.30761718750000000000, 4144.10253906250000000000, 4143.58984375000000000000, 4140.00000000000000000000, 4109.23046875000000000000, 4152.30761718750000000000, 4152.30761718750000000000, 4147.17919921875000000000, 4147.69238281250000000000, 4161.53857421875000000000, 4139.48730468750000000000, 4178.46142578125000000000, 4133.33300781250000000000, 4149.23046875000000000000, 0.00000000000000000000, 2039.00000000000000000000, 2057.00000000000000000000, 0.00000000000000000000, 0.00000000000000000000, 1162.00000000000000000000, 501.00000000000000000000, 4.00000000000000000000, 4.00000000000000000000, 4.00000000000000000000, 4.00000000000000000000, 4.00000000000000000000, 4.00000000000000000000, 4.00000000000000000000, 2.00000000000000000000, 4.00000000000000000000, 4.00000000000000000000, 4.00000000000000000000, 4.00000000000000000000, 4.00000000000000000000, 4.00000000000000000000, 4.00000000000000000000, 4.00000000000000000000
64.00000000000000000000, 0.00000000000000000000, 4148.71777343750000000000, 4149.23046875000000000000, 4140.00000000000000000000, 4148.20507812500000000000, 4107.17919921875000000000, 4149.74365234375000000000, 4146.66650390625000000000, 4144.61523437500000000000, 4146.15380859375000000000, 4163.58984375000000000000, 4138.97412109375000000000, 4182.05126953125000000000, 4133.33300781250000000000, 4140.00000000000000000000, 619.00000000000000000000, 2038.00000000000000000000, 2056.00000000000000000000, 0.00000000000000000000, 0.00000000000000000000, 1162.00000000000000000000, 509.00000000000000000000, 4.00000000000000000000, 4.00000000000000000000, 4.00000000000000000000, 4.00000000000000000000, 4.00000000000000000000, 4.00000000000000000000, 4.00000000000000000000, 2.00000000000000000000, 4.00000000000000000000, 4.00000000000000000000, 4.00000000000000000000, 4.00000000000000000000, 4.00000000000000000000, 4.00000000000000000000, 4.00000000000000000000, 4.00000000000000000000
65.00000000000000000000, 0.00000000000000000000, 4146.15380859375000000000, 4147.69238281250000000000, 4155.89746093750000000000, 4148.71777343750000000000, 4104.10253906250000000000, 4144.10253906250000000000, 4143.58984375000000000000, 4144.61523437500000000000, 4143.07666015625000000000, 4149.23046875000000000000, 4132.82031250000000000000, 4171.28173828125000000000, 4127.69238281250000000000, 4136.41015625000000000000, 817.00000000000000000000, 2039.00000000000000000000, 2055.00000000000000000000, 0.00000000000000000000, 0.00000000000000000000, 1162.00000000000000000000, 517.00000000000000000000, 4.00000000000000000000, 4.00000000000000000000, 4.00000000000000000000, 4.00000000000000000000, 4.00000000000000000000, 4.00000000000000000000, 4.00000000000000000000, 2.00000000000000000000, 4.00000000000000000000, 4.00000000000000000000, 4.00000000000000000000, 4.00000000000000000000, 4.00000000000000000000, 4.00000000000000000000, 4.00000000000000000000, 4.00000000000000000000
66.00000000000000000000, 0.00000000000000000000, 4145.12792968750000000000, 4136.92285156250000000000, 4146.66650390625000000000, 4140.00000000000000000000, 4100.00000000000000000000, 4150.76904296875000000000, 4148.20507812500000000000, 4146.15380859375000000000, 4141.02539062500000000000, 4129.23046875000000000000, 4126.15380859375000000000, 4165.12792968750000000000, 4120.51269531250000000000, 4136.92285156250000000000, 683.00000000000000000000, 2039.00000000000000000000, 2056.00000000000000000000, 0.00000000000000000000, 0.00000000000000000000, 1162.00000000000000000000, 524.00000000000000000000, 4.00000000000000000000, 4.00000000000000000000, 4.00000000000000000000, 4.00000000000000000000, 4.00000000000000000000, 4.00000000000000000000, 4.00000000000000000000, 2.00000000000000000000, 4.00000000000000000000, 4.00000000000000000000, 4.00000000000000000000, 4.00000000000000000000, 4.00000000000000000000, 4.00000000000000000000, 4.00000000000000000000, 4.00000000000000000000
67.00000000000000000000, 0.00000000000000000000, 4143.07666015625000000000, 4136.92285156250000000000, 4132.30761718750000000000, 4152.30761718750000000000, 4098.97412109375000000000, 4151.28173828125000000000, 4145.12792968750000000000, 4140.51269531250000000000, 4134.87158203125000000000, 4129.74365234375000000000, 4131.28173828125000000000, 4171.28173828125000000000, 4117.43603515625000000000, 4135.38427734375000000000, 782.00000000000000000000, 2039.00000000000000000000, 2055.00000000000000000000, 0.00000000000000000000, 0.00000000000000000000, 1162.00000000000000000000, 532.00000000000000000000, 4.00000000000000000000, 4.00000000000000000000, 4.00000000000000000000, 4.00000000000000000000, 4.00000000000000000000, 4.00000000000000000000, 4.00000000000000000000, 2.00000000000000000000, 4.00000000000000000000, 4.00000000000000000000, 4.00000000000000000000, 4.00000000000000000000, 4.00000000000000000000, 4.00000000000000000000, 4.00000000000000000000, 4.00000000000000000000
68.00000000000000000000, 0.00000000000000000000, 4146.66650390625000000000, 4145.64111328125000000000, 4153.33300781250000000000, 4160.00000000000000000000, 4102.05126953125000000000, 4149.23046875000000000000, 4143.07666015625000000000, 4139.48730468750000000000, 4127.17919921875000000000, 4151.79492187500000000000, 4131.79492187500000000000, 4176.41015625000000000000, 4121.53857421875000000000, 4143.07666015625000000000, 851.00000000000000000000, 2040.00000000000000000000, 2056.00000000000000000000, 0.00000000000000000000, 0.00000000000000000000, 1162.00000000000000000000, 540.00000000000000000000, 4.00000000000000000000, 4.00000000000000000000, 4.00000000000000000000, 4.00000000000000000000, 4.00000000000000000000, 4.00000000000000000000, 4.00000000000000000000, 2.00000000000000000000, 4.00000000000000000000, 4.00000000000000000000, 4.00000000000000000000, 4.00000000000000000000, 4.00000000000000000000, 4.00000000000000000000, 4.00000000000000000000, 4.00000000000000000000
69.00000000000000000000, 0.00000000000000000000, 4155.89746093750000000000, 4151.28173828125000000000, 4156.92285156250000000000, 4145.64111328125000000000, 4106.66650390625000000000, 4154.35888671875000000000, 4144.10253906250000000000, 4145.64111328125000000000, 4133.33300781250000000000, 4158.97412109375000000000, 4126.66650390625000000000, 4175.38427734375000000000, 4129.74365234375000000000, 4149.74365234375000000000, 608.00000000000000000000, 2039.00000000000000000000, 2055.00000000000000000000, 0.00000000000000000000, 0.00000000000000000000, 1162.00000000000000000000, 548.00000000000000000000, 4.00000000000000000000, 4.00000000000000000000, 4.00000000000000000000, 4.00000000000000000000, 4.00000000000000000000, 4.00000000000000000000, 4.00000000000000000000, 2.00000000000000000000, 4.00000000000000000000, 4.00000000000000000000, 4.00000000000000000000, 4.00000000000000000000, 4.00000000000000000000, 4.00000000000000000000, 4.00000000000000000000, 4.00000000000000000000
70.00000000000000000000, 0.00000000000000000000, 4155.89746093750000000000, 4153.84619140625000000000, 4145.12792968750000000000, 4142.05126953125000000000, 4107.17919921875000000000, 4149.74365234375000000000, 4140.51269531250000000000, 4146.66650390625000000000, 4142.05126953125000000000, 4133.84619140625000000000, 4133.84619140625000000000, 4180.51269531250000000000, 4130.25634765625000000000, 4147.69238281250000000000, 685.00000000000000000000, 2040.00000000000000000000, 2055.00000000000000000000, 0.00000000000000000000, 0.00000000000000000000, 1162.00000000000000000000, 556.00000000000000000000, 4.00000000000000000000, 4.00000000000000000000, 4.00000000000000000000, 4.00000000000000000000, 4.00000000000000000000, 4.00000000000000000000, 4.00000000000000000000, 2.00000000000000000000, 4.00000000000000000000, 4.00000000000000000000, 4.00000000000000000000, 4.00000000000000000000, 4.00000000000000000000, 4.00000000000000000000, 4.00000000000000000000, 4.00000000000000000000
71.00000000000000000000, 0.00000000000000000000, 4151.79492187500000000000, 4152.30761718750000000000, 4155.38427734375000000000, 4150.25634765625000000000, 4102.05126953125000000000, 4132.30761718750000000000, 4135.89746093750000000000, 4138.97412109375000000000, 4133.84619140625000000000, 4123.58984375000000000000, 4140.00000000000000000000, 4183.07666015625000000000, 4124.61523437500000000000, 4148.20507812500000000000, 227.00000000000000000000, 2039.00000000000000000000, 2055.00000000000000000000, 0.00000000000000000000, 0.00000000000000000000, 1162.00000000000000000000, 564.00000000000000000000, 4.00000000000000000000, 4.00000000000000000000, 4.00000000000000000000, 4.00000000000000000000, 4.00000000000000000000, 4.00000000000000000000, 4.00000000000000000000, 2.00000000000000000000, 4.00000000000000000000, 4.00000000000000000000, 4.00000000000000000000, 4.00000000000000000000, 4.00000000000000000000, 4.00000000000000000000, 4.00000000000000000000, 4.00000000000000000000
72.00000000000000000000, 0.00000000000000000000, 4160.51269531250000000000, 4153.84619140625000000000, 4158.46142578125000000000, 4153.84619140625000000000, 4097.94873046875000000000, 4138.97412109375000000000, 4143.07666015625000000000, 4139.48730468750000000000, 4126.66650390625000000000, 4149.74365234375000000000, 4135.89746093750000000000, 4182.05126953125000000000, 4131.28173828125000000000, 4149.23046875000000000000, 581.00000000000000000000, 2039.00000000000000000000, 2058.00000000000000000000, 0.00000000000000000000, 0.00000000000000000000, 1162.00000000000000000000, 573.00000000000000000000, 4.00000000000000000000, 4.00000000000000000000, 4.00000000000000000000, 4.00000000000000000000, 4.00000000000000000000, 4.00000000000000000000, 4.00000000000000000000, 2.00000000000000000000, 4.00000000000000000000, 4.00000000000000000000, 4.00000000000000000000, 4.00000000000000000000, 4.00000000000000000000, 4.00000000000000000000, 4.00000000000000000000, 4.00000000000000000000
73.00000000000000000000, 0.00000000000000000000, 4163.07666015625000000000, 4160.00000000000000000000, 4144.61523437500000000000, 4158.97412109375000000000, 4097.43603515625000000000, 4162.05126953125000000000, 4159.48730468750000000000, 4148.71777343750000000000, 4140.51269531250000000000, 4163.07666015625000000000, 4141.02539062500000000000, 4186.15380859375000000000, 4143.58984375000000000000, 4149.74365234375000000000, 856.00000000000000000000, 2040.00000000000000000000, 2058.00000000000000000000, 0.00000000000000000000, 0.00000000000000000000, 1162.00000000000000000000, 580.00000000000000000000, 4.00000000000000000000, 4.00000000000000000000, 4.00000000000000000000, 4.00000000000000000000, 4.00000000000000000000, 4.00000000000000000000, 4.00000000000000000000, 2.00000000000000000000, 4.00000000000000000000, 4.00000000000000000000, 4.00000000000000000000, 4.00000000000000000000, 4.00000000000000000000, 4.00000000000000000000, 4.00000000000000000000, 4.00000000000000000000
74.00000000000000000000, 0.00000000000000000000, 4154.87158203125000000000, 4164.61523437500000000000, 4151.79492187500000000000, 4166.15380859375000000000, 4100.51269531250000000000, 4162.05126953125000000000, 4161.53857421875000000000, 4150.25634765625000000000, 4154.87158203125000000000, 4155.89746093750000000000, 4149.23046875000000000000, 4184.61523437500000000000, 4146.66650390625000000000, 4160.51269531250000000000, 818.00000000000000000000, 2040.00000000000000000000, 2057.00000000000000000000, 0.00000000000000000000, 0.00000000000000000000, 1162.00000000000000000000, 588.00000000000000000000, 4.00000000000000000000, 4.00000000000000000000, 4.00000000000000000000, 4.00000000000000000000, 4.00000000000000000000, 4.00000000000000000000, 4.00000000000000000000, 2.00000000000000000000, 4.00000000000000000000, 4.00000000000000000000, 4.00000000000000000000, 4.00000000000000000000, 4.00000000000000000000, 4.00000000000000000000, 4.00000000000000000000, 4.00000000000000000000
75.00000000000000000000, 0.00000000000000000000, 4150.25634765625000000000, 4160.51269531250000000000, 4158.97412109375000000000, 4156.41015625000000000000, 4103.07666015625000000000, 4144.10253906250000000000, 4148.71777343750000000000, 4145.64111328125000000000, 4148.20507812500000000000, 4156.41015625000000000000, 4141.53857421875000000000, 4175.89746093750000000000, 4144.10253906250000000000, 4163.58984375000000000000, 776.00000000000000000000, 2042.00000000000000000000, 2055.00000000000000000000, 0.00000000000000000000, 0.00000000000000000000, 1162.00000000000000000000, 595.00000000000000000000, 4.00000000000000000000, 4.00000000000000000000, 4.00000000000000000000, 4.00000000000000000000, 4.00000000000000000000, 4.00000000000000000000, 4.00000000000000000000, 2.00000000000000000000, 4.00000000000000000000, 4.00000000000000000000, 4.00000000000000000000, 4.00000000000000000000, 4.00000000000000000000, 4.00000000000000000000, 4.00000000000000000000, 4.00000000000000000000
76.00000000000000000000, 0.00000000000000000000, 4150.25634765625000000000, 4155.89746093750000000000, 4142.56396484375000000000, 4141.53857421875000000000, 4108.20507812500000000000, 4148.20507812500000000000, 4143.07666015625000000000, 4145.64111328125000000000, 4139.48730468750000000000, 4160.51269531250000000000, 4140.51269531250000000000, 4170.25634765625000000000, 4139.48730468750000000000, 4146.15380859375000000000, 803.00000000000000000000, 2044.00000000000000000000, 2056.00000000000000000000, 0.00000000000000000000, 0.00000000000000000000, 1162.00000000000000000000, 602.00000000000000000000, 4.00000000000000000000, 4.00000000000000000000, 4.00000000000000000000, 4.00000000000000000000, 4.00000000000000000000, 4.00000000000000000000, 4.00000000000000000000, 2.00000000000000000000, 4.00000000000000000000, 4.00000000000000000000, 4.00000000000000000000, 4.00000000000000000000, 4.00000000000000000000, 4.00000000000000000000, 4.00000000000000000000, 4.00000000000000000000
77.00000000000000000000, 0.00000000000000000000, 4154.87158203125000000000, 4160.00000000000000000000, 4147.69238281250000000000, 4148.71777343750000000000, 4110.76904296875000000000, 4167.69238281250000000000, 4151.79492187500000000000, 4148.71777343750000000000, 4147.17919921875000000000, 4161.02539062500000000000, 4152.82031250000000000000, 4175.89746093750000000000, 4141.02539062500000000000, 4143.58984375000000000000, 627.00000000000000000000, 2042.00000000000000000000, 2056.00000000000000000000, 0.00000000000000000000, 0.00000000000000000000, 1162.00000000000000000000, 610.00000000000000000000, 4.00000000000000000000, 4.00000000000000000000, 4.00000000000000000000, 4.00000000000000000000, 4.00000000000000000000, 4.00000000000000000000, 4.00000000000000000000, 2.00000000000000000000, 4.00000000000000000000, 4.00000000000000000000, 4.00000000000000000000, 4.00000000000000000000, 4.00000000000000000000, 4.00000000000000000000, 4.00000000000000000000, 4.00000000000000000000
78.00000000000000000000, 0.00000000000000000000, 4162.05126953125000000000, 4165.64111328125000000000, 4162.56396484375000000000, 4163.58984375000000000000, 4103.58984375000000000000, 4164.10253906250000000000, 4153.33300781250000000000, 4149.23046875000000000000, 4150.76904296875000000000, 4171.79492187500000000000, 4157.94873046875000000000, 4181.53857421875000000000, 4153.84619140625000000000, 4161.02539062500000000000, 818.00000000000000000000, 2042.00000000000000000000, 2057.00000000000000000000, 0.00000000000000000000, 0.00000000000000000000, 1162.00000000000000000000, 618.00000000000000000000, 4.00000000000000000000, 4.00000000000000000000, 4.00000000000000000000, 4.00000000000000000000, 4.00000000000000000000, 4.00000000000000000000, 4.00000000000000000000, 2.00000000000000000000, 4.00000000000000000000, 4.00000000000000000000, 4.00000000000000000000, 4.00000000000000000000, 4.00000000000000000000, 4.00000000000000000000, 4.00000000000000000000, 4.00000000000000000000
79.00000000000000000000, 0.00000000000000000000, 4163.07666015625000000000, 4166.66650390625000000000, 4152.82031250000000000000, 4163.58984375000000000000, 4101.53857421875000000000, 4151.79492187500000000000, 4145.64111328125000000000, 4148.20507812500000000000, 4136.92285156250000000000, 4186.66650390625000000000, 4155.89746093750000000000, 4183.07666015625000000000, 4154.87158203125000000000, 4161.02539062500000000000, 776.00000000000000000000, 2041.00000000000000000000, 2057.00000000000000000000, 0.00000000000000000000, 0.00000000000000000000, 1162.00000000000000000000, 627.00000000000000000000, 4.00000000000000000000, 4.00000000000000000000, 4.00000000000000000000, 4.00000000000000000000, 4.00000000000000000000, 4.00000000000000000000, 4.00000000000000000000, 2.00000000000000000000, 4.00000000000000000000, 4.00000000000000000000, 4.00000000000000000000, 4.00000000000000000000, 4.00000000000000000000, 4.00000000000000000000, 4.00000000000000000000, 4.00000000000000000000
80.00000000000000000000, 0.00000000000000000000, 4150.76904296875000000000, 4161.02539062500000000000, 4146.66650390625000000000, 4156.41015625000000000000, 4103.58984375000000000000, 4153.33300781250000000000, 4149.74365234375000000000, 4145.12792968750000000000, 4132.30761718750000000000, 4167.17919921875000000000, 4145.12792968750000000000, 4175.38427734375000000000, 4137.43603515625000000000, 4144.61523437500000000000, 803.00000000000000000000, 2041.00000000000000000000, 2056.00000000000000000000, 0.00000000000000000000, 0.00000000000000000000, 1162.00000000000000000000, 635.00000000000000000000, 4.00000000000000000000, 4.00000000000000000000, 4.00000000000000000000, 4.00000000000000000000, 4.00000000000000000000, 4.00000000000000000000, 4.00000000000000000000, 2.00000000000000000000, 4.00000000000000000000, 4.00000000000000000000, 4.00000000000000000000, 4.00000000000000000000, 4.00000000000000000000, 4.00000000000000000000, 4.00000000000000000000, 4.00000000000000000000
81.00000000000000000000, 0.00000000000000000000, 4144.61523437500000000000, 4153.33300781250000000000, 4160.00000000000000000000, 4155.38427734375000000000, 4096.92285156250000000000, 4158.46142578125000000000, 4160.51269531250000000000, 4142.56396484375000000000, 4138.46142578125000000000, 4132.82031250000000000000, 4128.71777343750000000000, 4170.76904296875000000000, 4128.71777343750000000000, 4142.56396484375000000000, 627.00000000000000000000, 2040.00000000000000000000, 2058.00000000000000000000, 0.00000000000000000000, 0.00000000000000000000, 1162.00000000000000000000, 643.00000000000000000000, 4.00000000000000000000, 4.00000000000000000000, 4.00000000000000000000, 4.00000000000000000000, 4.00000000000000000000, 4.00000000000000000000, 4.00000000000000000000, 2.00000000000000000000, 4.00000000000000000000, 4.00000000000000000000, 4.00000000000000000000, 4.00000000000000000000, 4.00000000000000000000, 4.00000000000000000000, 4.00000000000000000000, 4.00000000000000000000
82.00000000000000000000, 0.00000000000000000000, 4149.74365234375000000000, 4153.84619140625000000000, 4148.20507812500000000000, 4155.89746093750000000000, 4096.41015625000000000000, 4151.79492187500000000000, 4160.51269531250000000000, 4141.53857421875000000000, 4138.46142578125000000000, 4139.48730468750000000000, 4127.17919921875000000000, 4172.30761718750000000000, 4137.94873046875000000000, 4148.71777343750000000000, 818.00000000000000000000, 2040.00000000000000000000, 2058.00000000000000000000, 0.00000000000000000000, 0.00000000000000000000, 1162.00000000000000000000, 651.00000000000000000000, 4.00000000000000000000, 4.00000000000000000000, 4.00000000000000000000, 4.00000000000000000000, 4.00000000000000000000, 4.00000000000000000000, 4.00000000000000000000, 2.00000000000000000000, 4.00000000000000000000, 4.00000000000000000000, 4.00000000000000000000, 4.00000000000000000000, 4.00000000000000000000, 4.00000000000000000000, 4.00000000000000000000, 4.00000000000000000000
83.00000000000000000000, 0.00000000000000000000, 4152.30761718750000000000, 4155.89746093750000000000, 4138.46142578125000000000, 4153.33300781250000000000, 4106.15380859375000000000, 4144.10253906250000000000, 4152.30761718750000000000, 4145.64111328125000000000, 4135.38427734375000000000, 4157.43603515625000000000, 4131.79492187500000000000, 4175.38427734375000000000, 4136.92285156250000000000, 4143.58984375000000000000, 776.00000000000000000000, 2041.00000000000000000000, 2063.00000000000000000000, 0.00000000000000000000, 0.00000000000000000000, 1162.00000000000000000000, 658.00000000000000000000, 4.00000000000000000000, 4.00000000000000000000, 4.00000000000000000000, 4.00000000000000000000, 4.00000000000000000000, 4.00000000000000000000, 4.00000000000000000000, 2.00000000000000000000, 4.00000000000000000000, 4.00000000000000000000, 4.00000000000000000000, 4.00000000000000000000, 4.00000000000000000000, 4.00000000000000000000, 4.00000000000000000000, 4.00000000000000000000
84.00000000000000000000, 0.00000000000000000000, 4147.69238281250000000000, 4149.74365234375000000000, 4149.23046875000000000000, 4150.76904296875000000000, 4108.20507812500000000000, 4147.17919921875000000000, 4148.71777343750000000000, 4146.66650390625000000000, 4135.89746093750000000000, 4150.25634765625000000000, 4130.76904296875000000000, 4173.33300781250000000000, 4130.25634765625000000000, 4137.43603515625000000000, 803.00000000000000000000, 2041.00000000000000000000, 2064.00000000000000000000, 0.00000000000000000000, 0.00000000000000000000, 1162.00000000000000000000, 666.00000000000000000000, 4.00000000000000000000, 4.00000000000000000000, 4.00000000000000000000, 4.00000000000000000000, 4.00000000000000000000, 4.00000000000000000000, 4.00000000000000000000, 2.00000000000000000000, 4.00000000000000000000, 4.00000000000000000000, 4.00000000000000000000, 4.00000000000000000000, 4.00000000000000000000, 4.00000000000000000000, 4.00000000000000000000, 4.00000000000000000000
85.00000000000000000000, 0.00000000000000000000, 4146.15380859375000000000, 4145.12792968750000000000, 4151.79492187500000000000, 4147.17919921875000000000, 4098.46142578125000000000, 4151.79492187500000000000, 4149.74365234375000000000, 4147.17919921875000000000, 4136.92285156250000000000, 4142.05126953125000000000, 4137.94873046875000000000, 4176.41015625000000000000, 4135.89746093750000000000, 4144.10253906250000000000, 627.00000000000000000000, 2040.00000000000000000000, 2066.00000000000000000000, 0.00000000000000000000, 0.00000000000000000000, 1162.00000000000000000000, 674.00000000000000000000, 4.00000000000000000000, 4.00000000000000000000, 4.00000000000000000000, 4.00000000000000000000, 4.00000000000000000000, 4.00000000000000000000, 4.00000000000000000000, 2.00000000000000000000, 4.00000000000000000000, 4.00000000000000000000, 4.00000000000000000000, 4.00000000000000000000, 4.00000000000000000000, 4.00000000000000000000, 4.00000000000000000000, 4.00000000000000000000
86.00000000000000000000, 0.00000000000000000000, 4151.28173828125000000000, 4153.84619140625000000000, 4143.58984375000000000000, 4150.25634765625000000000, 4102.56396484375000000000, 4149.23046875000000000000, 4146.66650390625000000000, 4145.64111328125000000000, 4142.56396484375000000000, 4152.30761718750000000000, 4150.25634765625000000000, 4181.53857421875000000000, 4143.58984375000000000000, 4156.92285156250000000000, 818.00000000000000000000, 2040.00000000000000000000, 2066.00000000000000000000, 0.00000000000000000000, 0.00000000000000000000, 1162.00000000000000000000, 682.00000000000000000000, 4.00000000000000000000, 4.00000000000000000000, 4.00000000000000000000, 4.00000000000000000000, 4.00000000000000000000, 4.00000000000000000000, 4.00000000000000000000, 2.00000000000000000000, 4.00000000000000000000, 4.00000000000000000000, 4.00000000000000000000, 4.00000000000000000000, 4.00000000000000000000, 4.00000000000000000000, 4.00000000000000000000, 4.00000000000000000000
87.00000000000000000000, 0.00000000000000000000, 4155.89746093750000000000, 4160.00000000000000000000, 4158.97412109375000000000, 4158.46142578125000000000, 4109.74365234375000000000, 4151.28173828125000000000, 4149.23046875000000000000, 4147.69238281250000000000, 4144.10253906250000000000, 4158.46142578125000000000, 4150.76904296875000000000, 4183.58984375000000000000, 4145.12792968750000000000, 4163.58984375000000000000, 776.00000000000000000000, 2039.00000000000000000000, 2065.00000000000000000000, 0.00000000000000000000, 0.00000000000000000000, 1162.00000000000000000000, 690.00000000000000000000, 4.00000000000000000000, 4.00000000000000000000, 4.00000000000000000000, 4.00000000000000000000, 4.00000000000000000000, 4.00000000000000000000, 4.00000000000000000000, 2.00000000000000000000, 4.00000000000000000000, 4.00000000000000000000, 4.00000000000000000000, 4.00000000000000000000, 4.00000000000000000000, 4.00000000000000000000, 4.00000000000000000000, 4.00000000000000000000
88.00000000000000000000, 0.00000000000000000000, 4154.87158203125000000000, 4154.35888671875000000000, 4164.10253906250000000000, 4163.07666015625000000000, 4106.15380859375000000000, 4160.00000000000000000000, 4154.87158203125000000000, 4149.74365234375000000000, 4133.33300781250000000000, 4151.28173828125000000000, 4147.17919921875000000000, 4184.10253906250000000000, 4145.12792968750000000000, 4160.00000000000000000000, 803.00000000000000000000, 2039.00000000000000000000, 2064.00000000000000000000, 0.00000000000000000000, 0.00000000000000000000, 1162.00000000000000000000, 698.00000000000000000000, 4.00000000000000000000, 4.00000000000000000000, 4.00000000000000000000, 4.00000000000000000000, 4.00000000000000000000, 4.00000000000000000000, 4.00000000000000000000, 2.00000000000000000000, 4.00000000000000000000, 4.00000000000000000000, 4.00000000000000000000, 4.00000000000000000000, 4.00000000000000000000, 4.00000000000000000000, 4.00000000000000000000, 4.00000000000000000000
89.00000000000000000000, 0.00000000000000000000, 4153.84619140625000000000, 4148.71777343750000000000, 4149.23046875000000000000, 4157.94873046875000000000, 4103.07666015625000000000, 4157.94873046875000000000, 4154.35888671875000000000, 4147.17919921875000000000, 4128.71777343750000000000, 4144.10253906250000000000, 4146.15380859375000000000, 4186.15380859375000000000, 4143.07666015625000000000, 4155.89746093750000000000, 627.00000000000000000000, 2041.00000000000000000000, 2063.00000000000000000000, 0.00000000000000000000, 0.00000000000000000000, 1162.00000000000000000000, 706.00000000000000000000, 4.00000000000000000000, 4.00000000000000000000, 4.00000000000000000000, 4.00000000000000000000, 4.00000000000000000000, 4.00000000000000000000, 4.00000000000000000000, 2.00000000000000000000, 4.00000000000000000000, 4.00000000000000000000, 4.00000000000000000000, 4.00000000000000000000, 4.00000000000000000000, 4.00000000000000000000, 4.00000000000000000000, 4.00000000000000000000
90.00000000000000000000, 0.00000000000000000000, 4151.28173828125000000000, 4143.07666015625000000000, 4153.33300781250000000000, 4147.69238281250000000000, 4102.05126953125000000000, 4145.64111328125000000000, 4153.84619140625000000000, 4141.53857421875000000000, 4132.30761718750000000000, 4142.05126953125000000000, 4142.56396484375000000000, 4181.53857421875000000000, 4132.82031250000000000000, 4156.92285156250000000000, 818.00000000000000000000, 2039.00000000000000000000, 2062.00000000000000000000, 0.00000000000000000000, 0.00000000000000000000, 1162.00000000000000000000, 714.00000000000000000000, 4.00000000000000000000, 4.00000000000000000000, 4.00000000000000000000, 4.00000000000000000000, 4.00000000000000000000, 4.00000000000000000000, 4.00000000000000000000, 2.00000000000000000000, 4.00000000000000000000, 4.00000000000000000000, 4.00000000000000000000, 4.00000000000000000000, 4.00000000000000000000, 4.00000000000000000000, 4.00000000000000000000, 4.00000000000000000000
91.00000000000000000000, 0.00000000000000000000, 4156.41015625000000000000, 4143.07666015625000000000, 4166.15380859375000000000, 4149.23046875000000000000, 4100.51269531250000000000, 4155.38427734375000000000, 4165.64111328125000000000, 4145.64111328125000000000, 4136.41015625000000000000, 4146.66650390625000000000, 4140.00000000000000000000, 4180.51269531250000000000, 4131.28173828125000000000, 4163.58984375000000000000, 776.00000000000000000000, 2039.00000000000000000000, 2063.00000000000000000000, 0.00000000000000000000, 0.00000000000000000000, 1162.00000000000000000000, 721.00000000000000000000, 4.00000000000000000000, 4.00000000000000000000, 4.00000000000000000000, 4.00000000000000000000, 4.00000000000000000000, 4.00000000000000000000, 4.00000000000000000000, 2.00000000000000000000, 4.00000000000000000000, 4.00000000000000000000, 4.00000000000000000000, 4.00000000000000000000, 4.00000000000000000000, 4.00000000000000000000, 4.00000000000000000000, 4.00000000000000000000
92.00000000000000000000, 0.00000000000000000000, 4172.82031250000000000000, 4153.84619140625000000000, 4160.51269531250000000000, 4158.97412109375000000000, 4099.48730468750000000000, 4170.76904296875000000000, 4174.87158203125000000000, 4153.84619140625000000000, 4142.05126953125000000000, 4153.84619140625000000000, 4149.23046875000000000000, 4191.79492187500000000000, 4149.74365234375000000000, 4176.41015625000000000000, 803.00000000000000000000, 2038.00000000000000000000, 2060.00000000000000000000, 0.00000000000000000000, 0.00000000000000000000, 1162.00000000000000000000, 729.00000000000000000000, 4.00000000000000000000, 4.00000000000000000000, 4.00000000000000000000, 4.00000000000000000000, 4.00000000000000000000, 4.00000000000000000000, 4.00000000000000000000, 2.00000000000000000000, 4.00000000000000000000, 4.00000000000000000000, 4.00000000000000000000, 4.00000000000000000000, 4.00000000000000000000, 4.00000000000000000000, 4.00000000000000000000, 4.00000000000000000000
93.00000000000000000000, 0.00000000000000000000, 4186.66650390625000000000, 4166.15380859375000000000, 4164.10253906250000000000, 4165.64111328125000000000, 4095.89721679687500000000, 4162.05126953125000000000, 4170.25634765625000000000, 4154.35888671875000000000, 4148.20507812500000000000, 4158.97412109375000000000, 4160.00000000000000000000, 4197.94873046875000000000, 4159.48730468750000000000, 4189.74365234375000000000, 627.00000000000000000000, 2039.00000000000000000000, 2059.00000000000000000000, 0.00000000000000000000, 0.00000000000000000000, 1162.00000000000000000000, 737.00000000000000000000, 4.00000000000000000000, 4.00000000000000000000, 4.00000000000000000000, 4.00000000000000000000, 4.00000000000000000000, 4.00000000000000000000, 4.00000000000000000000, 2.00000000000000000000, 4.00000000000000000000, 4.00000000000000000000, 4.00000000000000000000, 4.00000000000000000000, 4.00000000000000000000, 4.00000000000000000000, 4.00000000000000000000, 4.00000000000000000000
94.00000000000000000000, 0.00000000000000000000, 4203.58984375000000000000, 4176.41015625000000000000, 4179.48730468750000000000, 4173.33300781250000000000, 4094.87158203125000000000, 4153.84619140625000000000, 4164.10253906250000000000, 4152.82031250000000000000, 4147.17919921875000000000, 4150.76904296875000000000, 4160.51269531250000000000, 4196.41015625000000000000, 4155.89746093750000000000, 4201.53857421875000000000, 818.00000000000000000000, 2039.00000000000000000000, 2057.00000000000000000000, 0.00000000000000000000, 0.00000000000000000000, 1162.00000000000000000000, 745.00000000000000000000, 4.00000000000000000000, 4.00000000000000000000, 4.00000000000000000000, 4.00000000000000000000, 4.00000000000000000000, 4.00000000000000000000, 4.00000000000000000000, 2.00000000000000000000, 4.00000000000000000000, 4.00000000000000000000, 4.00000000000000000000, 4.00000000000000000000, 4.00000000000000000000, 4.00000000000000000000, 4.00000000000000000000, 4.00000000000000000000
