title:1                                                                               , recorded:03.02.16 19.57.36, sampling:128, subject:nudge-right-twice                                                               , labels:COUNTER INTERPOLATED AF3 F7 F3 FC5 T7 P7 O1 O2 P8 T8 FC6 F4 F8 AF4 RAW_CQ GYROX GYROY MARKER SYNC TIME_STAMP_s TIME_STAMP_ms CQ_AF3 CQ_F7 CQ_F3 CQ_FC5 CQ_T7 CQ_P7 CQ_O1 CQ_O2 CQ_P8 CQ_T8 CQ_FC6 CQ_F4 CQ_F8 CQ_AF4 CQ_CMS CQ_DRL, chan:39, units:emotiv
32.00000000000000000000, 0.00000000000000000000, 4152.82031250000000000000, 4155.89746093750000000000, 4187.17919921875000000000, 4158.97412109375000000000, 4151.79492187500000000000, 4165.64111328125000000000, 4154.35888671875000000000, 4157.94873046875000000000, 4129.74365234375000000000, 4168.20507812500000000000, 4155.89746093750000000000, 4198.46142578125000000000, 4175.38427734375000000000, 4167.69238281250000000000, 0.00000000000000000000, 2041.00000000000000000000, 2058.00000000000000000000, 0.00000000000000000000, 0.00000000000000000000, 2160.00000000000000000000, 471.00000000000000000000, 0.00000000000000000000, 0.00000000000000000000, 0.00000000000000000000, 0.00000000000000000000, 0.00000000000000000000, 0.00000000000000000000, 0.00000000000000000000, 0.00000000000000000000, 0.00000000000000000000, 0.00000000000000000000, 0.00000000000000000000, 0.00000000000000000000, 0.00000000000000000000, 0.00000000000000000000, 0.00000000000000000000, 0.00000000000000000000
33.00000000000000000000, 0.00000000000000000000, 4156.41015625000000000000, 4161.02539062500000000000, 4175.89746093750000000000, 4155.38427734375000000000, 4158.97412109375000000000, 4168.20507812500000000000, 4155.38427734375000000000, 4158.46142578125000000000, 4128.20507812500000000000, 4167.69238281250000000000, 4152.82031250000000000000, 4198.46142578125000000000, 4169.23046875000000000000, 4167.17919921875000000000, 0.00000000000000000000, 2042.00000000000000000000, 2059.00000000000000000000, 0.00000000000000000000, 0.00000000000000000000, 2160.00000000000000000000, 479.00000000000000000000, 0.00000000000000000000, 0.00000000000000000000, 0.00000000000000000000, 0.00000000000000000000, 0.00000000000000000000, 0.00000000000000000000, 0.00000000000000000000, 0.00000000000000000000, 0.00000000000000000000, 0.00000000000000000000, 0.00000000000000000000, 0.00000000000000000000, 0.00000000000000000000, 0.00000000000000000000, 0.00000000000000000000, 0.00000000000000000000
34.00000000000000000000, 0.00000000000000000000, 4152.30761718750000000000, 4171.28173828125000000000, 4178.97412109375000000000, 4146.66650390625000000000, 4168.20507812500000000000, 4173.84619140625000000000, 4165.64111328125000000000, 4157.43603515625000000000, 4133.84619140625000000000, 4170.76904296875000000000, 4158.46142578125000000000, 4197.43603515625000000000, 4172.30761718750000000000, 4170.25634765625000000000, 0.00000000000000000000, 2042.00000000000000000000, 2058.00000000000000000000, 0.00000000000000000000, 0.00000000000000000000, 2160.00000000000000000000, 487.00000000000000000000, 0.00000000000000000000, 0.00000000000000000000, 0.00000000000000000000, 0.00000000000000000000, 0.00000000000000000000, 0.00000000000000000000, 0.00000000000000000000, 0.00000000000000000000, 0.00000000000000000000, 0.00000000000000000000, 0.00000000000000000000, 0.00000000000000000000, 0.00000000000000000000, 0.00000000000000000000, 0.00000000000000000000, 0.00000000000000000000
35.00000000000000000000, 0.00000000000000000000, 4144.61523437500000000000, 4156.41015625000000000000, 4188.71777343750000000000, 4146.66650390625000000000, 4162.56396484375000000000, 4178.46142578125000000000, 4172.82031250000000000000, 4158.46142578125000000000, 4132.82031250000000000000, 4164.10253906250000000000, 4152.82031250000000000000, 4189.23046875000000000000, 4170.25634765625000000000, 4165.64111328125000000000, 0.00000000000000000000, 2043.00000000000000000000, 2058.00000000000000000000, 0.00000000000000000000, 0.00000000000000000000, 2160.00000000000000000000, 495.00000000000000000000, 0.00000000000000000000, 0.00000000000000000000, 0.00000000000000000000, 0.00000000000000000000, 0.00000000000000000000, 0.00000000000000000000, 0.00000000000000000000, 0.00000000000000000000, 0.00000000000000000000, 0.00000000000000000000, 0.00000000000000000000, 0.00000000000000000000, 0.00000000000000000000, 0.00000000000000000000, 0.00000000000000000000, 0.00000000000000000000
36.00000000000000000000, 0.00000000000000000000, 4141.02539062500000000000, 4144.61523437500000000000, 4169.74365234375000000000, 4159.48730468750000000000, 4160.00000000000000000000, 4177.94873046875000000000, 4169.74365234375000000000, 4154.35888671875000000000, 4122.05126953125000000000, 4149.23046875000000000000, 4142.05126953125000000000, 4181.02539062500000000000, 4158.97412109375000000000, 4154.87158203125000000000, 0.00000000000000000000, 2040.00000000000000000000, 2058.00000000000000000000, 0.00000000000000000000, 0.00000000000000000000, 2160.00000000000000000000, 503.00000000000000000000, 0.00000000000000000000, 0.00000000000000000000, 0.00000000000000000000, 0.00000000000000000000, 0.00000000000000000000, 0.00000000000000000000, 0.00000000000000000000, 0.00000000000000000000, 0.00000000000000000000, 0.00000000000000000000, 0.00000000000000000000, 0.00000000000000000000, 0.00000000000000000000, 0.00000000000000000000, 0.00000000000000000000, 0.00000000000000000000
37.00000000000000000000, 0.00000000000000000000, 4143.58984375000000000000, 4160.00000000000000000000, 4159.48730468750000000000, 4161.02539062500000000000, 4163.58984375000000000000, 4177.43603515625000000000, 4168.20507812500000000000, 4153.33300781250000000000, 4117.94873046875000000000, 4143.58984375000000000000, 4143.07666015625000000000, 4184.61523437500000000000, 4154.87158203125000000000, 4153.33300781250000000000, 0.00000000000000000000, 2041.00000000000000000000, 2057.00000000000000000000, 0.00000000000000000000, 0.00000000000000000000, 2160.00000000000000000000, 510.00000000000000000000, 0.00000000000000000000, 0.00000000000000000000, 0.00000000000000000000, 0.00000000000000000000, 0.00000000000000000000, 0.00000000000000000000, 0.00000000000000000000, 0.00000000000000000000, 0.00000000000000000000, 0.00000000000000000000, 0.00000000000000000000, 0.00000000000000000000, 0.00000000000000000000, 0.00000000000000000000, 0.00000000000000000000, 0.00000000000000000000
38.00000000000000000000, 0.00000000000000000000, 4143.58984375000000000000, 4162.05126953125000000000, 4181.02539062500000000000, 4153.33300781250000000000, 4164.61523437500000000000, 4180.51269531250000000000, 4166.15380859375000000000, 4153.33300781250000000000, 4123.07666015625000000000, 4151.28173828125000000000, 4152.82031250000000000000, 4187.17919921875000000000, 4164.10253906250000000000, 4160.00000000000000000000, 0.00000000000000000000, 2043.00000000000000000000, 2059.00000000000000000000, 0.00000000000000000000, 0.00000000000000000000, 2160.00000000000000000000, 518.00000000000000000000, 0.00000000000000000000, 0.00000000000000000000, 0.00000000000000000000, 0.00000000000000000000, 0.00000000000000000000, 0.00000000000000000000, 0.00000000000000000000, 0.00000000000000000000, 0.00000000000000000000, 0.00000000000000000000, 0.00000000000000000000, 0.00000000000000000000, 0.00000000000000000000, 0.00000000000000000000, 0.00000000000000000000, 0.00000000000000000000
39.00000000000000000000, 0.00000000000000000000, 4141.53857421875000000000, 4150.25634765625000000000, 4188.20507812500000000000, 4149.23046875000000000000, 4162.05126953125000000000, 4183.07666015625000000000, 4158.46142578125000000000, 4149.74365234375000000000, 4119.48730468750000000000, 4152.82031250000000000000, 4152.30761718750000000000, 4186.15380859375000000000, 4168.20507812500000000000, 4160.51269531250000000000, 0.00000000000000000000, 2042.00000000000000000000, 2059.00000000000000000000, 0.00000000000000000000, 0.00000000000000000000, 2160.00000000000000000000, 526.00000000000000000000, 0.00000000000000000000, 0.00000000000000000000, 0.00000000000000000000, 0.00000000000000000000, 0.00000000000000000000, 0.00000000000000000000, 0.00000000000000000000, 0.00000000000000000000, 0.00000000000000000000, 0.00000000000000000000, 0.00000000000000000000, 0.00000000000000000000, 0.00000000000000000000, 0.00000000000000000000, 0.00000000000000000000, 0.00000000000000000000
40.00000000000000000000, 0.00000000000000000000, 4138.46142578125000000000, 4155.89746093750000000000, 4165.12792968750000000000, 4146.15380859375000000000, 4163.58984375000000000000, 4175.38427734375000000000, 4155.38427734375000000000, 4147.69238281250000000000, 4114.35888671875000000000, 4153.33300781250000000000, 4147.17919921875000000000, 4187.17919921875000000000, 4163.58984375000000000000, 4155.89746093750000000000, 0.00000000000000000000, 2042.00000000000000000000, 2058.00000000000000000000, 0.00000000000000000000, 0.00000000000000000000, 2160.00000000000000000000, 534.00000000000000000000, 0.00000000000000000000, 0.00000000000000000000, 0.00000000000000000000, 0.00000000000000000000, 0.00000000000000000000, 0.00000000000000000000, 0.00000000000000000000, 0.00000000000000000000, 0.00000000000000000000, 0.00000000000000000000, 0.00000000000000000000, 0.00000000000000000000, 0.00000000000000000000, 0.00000000000000000000, 0.00000000000000000000, 0.00000000000000000000
41.00000000000000000000, 0.00000000000000000000, 4143.07666015625000000000, 4166.66650390625000000000, 4172.82031250000000000000, 4145.12792968750000000000, 4165.64111328125000000000, 4172.30761718750000000000, 4158.97412109375000000000, 4153.84619140625000000000, 4121.02539062500000000000, 4160.51269531250000000000, 4152.30761718750000000000, 4191.28173828125000000000, 4165.64111328125000000000, 4160.51269531250000000000, 0.00000000000000000000, 2041.00000000000000000000, 2057.00000000000000000000, 0.00000000000000000000, 0.00000000000000000000, 2160.00000000000000000000, 541.00000000000000000000, 0.00000000000000000000, 0.00000000000000000000, 0.00000000000000000000, 0.00000000000000000000, 0.00000000000000000000, 0.00000000000000000000, 0.00000000000000000000, 0.00000000000000000000, 0.00000000000000000000, 0.00000000000000000000, 0.00000000000000000000, 0.00000000000000000000, 0.00000000000000000000, 0.00000000000000000000, 0.00000000000000000000, 0.00000000000000000000
42.00000000000000000000, 0.00000000000000000000, 4148.20507812500000000000, 4157.94873046875000000000, 4193.33300781250000000000, 4159.48730468750000000000, 4166.15380859375000000000, 4180.00000000000000000000, 4161.53857421875000000000, 4155.38427734375000000000, 4128.20507812500000000000, 4171.79492187500000000000, 4163.07666015625000000000, 4193.33300781250000000000, 4177.43603515625000000000, 4169.23046875000000000000, 0.00000000000000000000, 2044.00000000000000000000, 2056.00000000000000000000, 0.00000000000000000000, 0.00000000000000000000, 2160.00000000000000000000, 549.00000000000000000000, 0.00000000000000000000, 0.00000000000000000000, 0.00000000000000000000, 0.00000000000000000000, 0.00000000000000000000, 0.00000000000000000000, 0.00000000000000000000, 0.00000000000000000000, 0.00000000000000000000, 0.00000000000000000000, 0.00000000000000000000, 0.00000000000000000000, 0.00000000000000000000, 0.00000000000000000000, 0.00000000000000000000, 0.00000000000000000000
43.00000000000000000000, 0.00000000000000000000, 4151.28173828125000000000, 4159.48730468750000000000, 4182.56396484375000000000, 4165.12792968750000000000, 4171.28173828125000000000, 4187.17919921875000000000, 4163.58984375000000000000, 4155.38427734375000000000, 4129.23046875000000000000, 4181.53857421875000000000, 4166.15380859375000000000, 4198.97412109375000000000, 4183.58984375000000000000, 4171.79492187500000000000, 0.00000000000000000000, 2043.00000000000000000000, 2056.00000000000000000000, 0.00000000000000000000, 0.00000000000000000000, 2160.00000000000000000000, 558.00000000000000000000, 0.00000000000000000000, 0.00000000000000000000, 0.00000000000000000000, 0.00000000000000000000, 0.00000000000000000000, 0.00000000000000000000, 0.00000000000000000000, 0.00000000000000000000, 0.00000000000000000000, 0.00000000000000000000, 0.00000000000000000000, 0.00000000000000000000, 0.00000000000000000000, 0.00000000000000000000, 0.00000000000000000000, 0.00000000000000000000
44.00000000000000000000, 0.00000000000000000000, 4154.35888671875000000000, 4171.28173828125000000000, 4174.35888671875000000000, 4153.84619140625000000000, 4176.41015625000000000000, 4183.58984375000000000000, 4166.66650390625000000000, 4158.97412109375000000000, 4130.76904296875000000000, 4187.17919921875000000000, 4164.10253906250000000000, 4201.53857421875000000000, 4186.15380859375000000000, 4169.74365234375000000000, 0.00000000000000000000, 2042.00000000000000000000, 2058.00000000000000000000, 0.00000000000000000000, 0.00000000000000000000, 2160.00000000000000000000, 566.00000000000000000000, 0.00000000000000000000, 0.00000000000000000000, 0.00000000000000000000, 0.00000000000000000000, 0.00000000000000000000, 0.00000000000000000000, 0.00000000000000000000, 0.00000000000000000000, 0.00000000000000000000, 0.00000000000000000000, 0.00000000000000000000, 0.00000000000000000000, 0.00000000000000000000, 0.00000000000000000000, 0.00000000000000000000, 0.00000000000000000000
45.00000000000000000000, 0.00000000000000000000, 4154.87158203125000000000, 4168.71777343750000000000, 4193.84619140625000000000, 4155.89746093750000000000, 4171.79492187500000000000, 4180.00000000000000000000, 4166.15380859375000000000, 4160.51269531250000000000, 4128.20507812500000000000, 4181.53857421875000000000, 4159.48730468750000000000, 4196.92285156250000000000, 4183.07666015625000000000, 4169.23046875000000000000, 0.00000000000000000000, 2041.00000000000000000000, 2057.00000000000000000000, 0.00000000000000000000, 0.00000000000000000000, 2160.00000000000000000000, 574.00000000000000000000, 0.00000000000000000000, 0.00000000000000000000, 0.00000000000000000000, 0.00000000000000000000, 0.00000000000000000000, 0.00000000000000000000, 0.00000000000000000000, 0.00000000000000000000, 0.00000000000000000000, 0.00000000000000000000, 0.00000000000000000000, 0.00000000000000000000, 0.00000000000000000000, 0.00000000000000000000, 0.00000000000000000000, 0.00000000000000000000
46.00000000000000000000, 0.00000000000000000000, 4151.28173828125000000000, 4156.41015625000000000000, 4190.76904296875000000000, 4167.17919921875000000000, 4164.61523437500000000000, 4177.43603515625000000000, 4163.58984375000000000000, 4156.92285156250000000000, 4123.07666015625000000000, 4167.69238281250000000000, 4155.38427734375000000000, 4192.82031250000000000000, 4175.38427734375000000000, 4168.71777343750000000000, 0.00000000000000000000, 2042.00000000000000000000, 2059.00000000000000000000, 0.00000000000000000000, 0.00000000000000000000, 2160.00000000000000000000, 581.00000000000000000000, 0.00000000000000000000, 0.00000000000000000000, 0.00000000000000000000, 0.00000000000000000000, 0.00000000000000000000, 0.00000000000000000000, 0.00000000000000000000, 0.00000000000000000000, 0.00000000000000000000, 0.00000000000000000000, 0.00000000000000000000, 0.00000000000000000000, 0.00000000000000000000, 0.00000000000000000000, 0.00000000000000000000, 0.00000000000000000000
47.00000000000000000000, 0.00000000000000000000, 4149.74365234375000000000, 4160.00000000000000000000, 4169.74365234375000000000, 4155.89746093750000000000, 4165.64111328125000000000, 4176.41015625000000000000, 4165.64111328125000000000, 4155.89746093750000000000, 4121.02539062500000000000, 4162.56396484375000000000, 4153.33300781250000000000, 4196.41015625000000000000, 4170.76904296875000000000, 4166.15380859375000000000, 0.00000000000000000000, 2042.00000000000000000000, 2058.00000000000000000000, 0.00000000000000000000, 0.00000000000000000000, 2160.00000000000000000000, 589.00000000000000000000, 0.00000000000000000000, 0.00000000000000000000, 0.00000000000000000000, 0.00000000000000000000, 0.00000000000000000000, 0.00000000000000000000, 0.00000000000000000000, 0.00000000000000000000, 0.00000000000000000000, 0.00000000000000000000, 0.00000000000000000000, 0.00000000000000000000, 0.00000000000000000000, 0.00000000000000000000, 0.00000000000000000000, 0.00000000000000000000
48.00000000000000000000, 0.00000000000000000000, 4151.28173828125000000000, 4165.12792968750000000000, 4182.05126953125000000000, 4142.05126953125000000000, 4169.23046875000000000000, 4185.12792968750000000000, 4171.28173828125000000000, 4157.94873046875000000000, 4120.00000000000000000000, 4162.05126953125000000000, 4154.35888671875000000000, 4203.07666015625000000000, 4172.82031250000000000000, 4168.71777343750000000000, 0.00000000000000000000, 2039.00000000000000000000, 2059.00000000000000000000, 0.00000000000000000000, 0.00000000000000000000, 2160.00000000000000000000, 597.00000000000000000000, 0.00000000000000000000, 0.00000000000000000000, 0.00000000000000000000, 0.00000000000000000000, 0.00000000000000000000, 0.00000000000000000000, 0.00000000000000000000, 0.00000000000000000000, 0.00000000000000000000, 0.00000000000000000000, 0.00000000000000000000, 0.00000000000000000000, 0.00000000000000000000, 0.00000000000000000000, 0.00000000000000000000, 0.00000000000000000000
49.00000000000000000000, 0.00000000000000000000, 4148.71777343750000000000, 4160.51269531250000000000, 4198.46142578125000000000, 4154.87158203125000000000, 4170.76904296875000000000, 4191.28173828125000000000, 4175.38427734375000000000, 4156.92285156250000000000, 4118.46142578125000000000, 4160.51269531250000000000, 4156.92285156250000000000, 4201.53857421875000000000, 4176.41015625000000000000, 4175.89746093750000000000, 0.00000000000000000000, 2039.00000000000000000000, 2059.00000000000000000000, 0.00000000000000000000, 0.00000000000000000000, 2160.00000000000000000000, 605.00000000000000000000, 0.00000000000000000000, 0.00000000000000000000, 0.00000000000000000000, 0.00000000000000000000, 0.00000000000000000000, 0.00000000000000000000, 0.00000000000000000000, 0.00000000000000000000, 0.00000000000000000000, 0.00000000000000000000, 0.00000000000000000000, 0.00000000000000000000, 0.00000000000000000000, 0.00000000000000000000, 0.00000000000000000000, 0.00000000000000000000
50.00000000000000000000, 0.00000000000000000000, 4149.74365234375000000000, 4159.48730468750000000000, 4186.15380859375000000000, 4158.46142578125000000000, 4169.74365234375000000000, 4190.25634765625000000000, 4173.33300781250000000000, 4155.89746093750000000000, 4118.46142578125000000000, 4163.58984375000000000000, 4153.84619140625000000000, 4197.43603515625000000000, 4175.38427734375000000000, 4174.87158203125000000000, 0.00000000000000000000, 2040.00000000000000000000, 2058.00000000000000000000, 0.00000000000000000000, 0.00000000000000000000, 2160.00000000000000000000, 613.00000000000000000000, 0.00000000000000000000, 0.00000000000000000000, 0.00000000000000000000, 0.00000000000000000000, 0.00000000000000000000, 0.00000000000000000000, 0.00000000000000000000, 0.00000000000000000000, 0.00000000000000000000, 0.00000000000000000000, 0.00000000000000000000, 0.00000000000000000000, 0.00000000000000000000, 0.00000000000000000000, 0.00000000000000000000, 0.00000000000000000000
51.00000000000000000000, 0.00000000000000000000, 4152.82031250000000000000, 4161.02539062500000000000, 4176.41015625000000000000, 4145.64111328125000000000, 4168.20507812500000000000, 4185.12792968750000000000, 4168.20507812500000000000, 4155.38427734375000000000, 4121.02539062500000000000, 4172.30761718750000000000, 4153.33300781250000000000, 4197.94873046875000000000, 4175.89746093750000000000, 4166.15380859375000000000, 0.00000000000000000000, 2041.00000000000000000000, 2058.00000000000000000000, 0.00000000000000000000, 0.00000000000000000000, 2160.00000000000000000000, 621.00000000000000000000, 0.00000000000000000000, 0.00000000000000000000, 0.00000000000000000000, 0.00000000000000000000, 0.00000000000000000000, 0.00000000000000000000, 0.00000000000000000000, 0.00000000000000000000, 0.00000000000000000000, 0.00000000000000000000, 0.00000000000000000000, 0.00000000000000000000, 0.00000000000000000000, 0.00000000000000000000, 0.00000000000000000000, 0.00000000000000000000
52.00000000000000000000, 0.00000000000000000000, 4154.35888671875000000000, 4162.56396484375000000000, 4187.69238281250000000000, 4150.76904296875000000000, 4167.69238281250000000000, 4181.53857421875000000000, 4169.74365234375000000000, 4157.43603515625000000000, 4124.61523437500000000000, 4172.30761718750000000000, 4155.38427734375000000000, 4201.02539062500000000000, 4180.00000000000000000000, 4168.71777343750000000000, 0.00000000000000000000, 2043.00000000000000000000, 2057.00000000000000000000, 0.00000000000000000000, 0.00000000000000000000, 2160.00000000000000000000, 629.00000000000000000000, 0.00000000000000000000, 0.00000000000000000000, 0.00000000000000000000, 0.00000000000000000000, 0.00000000000000000000, 0.00000000000000000000, 0.00000000000000000000, 0.00000000000000000000, 0.00000000000000000000, 0.00000000000000000000, 0.00000000000000000000, 0.00000000000000000000, 0.00000000000000000000, 0.00000000000000000000, 0.00000000000000000000, 0.00000000000000000000
53.00000000000000000000, 0.00000000000000000000, 4150.76904296875000000000, 4159.48730468750000000000, 4183.58984375000000000000, 4161.02539062500000000000, 4167.17919921875000000000, 4186.15380859375000000000, 4175.89746093750000000000, 4158.97412109375000000000, 4122.05126953125000000000, 4171.28173828125000000000, 4157.94873046875000000000, 4197.43603515625000000000, 4182.56396484375000000000, 4172.82031250000000000000, 0.00000000000000000000, 2041.00000000000000000000, 2055.00000000000000000000, 0.00000000000000000000, 0.00000000000000000000, 2160.00000000000000000000, 637.00000000000000000000, 0.00000000000000000000, 0.00000000000000000000, 0.00000000000000000000, 0.00000000000000000000, 0.00000000000000000000, 0.00000000000000000000, 0.00000000000000000000, 0.00000000000000000000, 0.00000000000000000000, 0.00000000000000000000, 0.00000000000000000000, 0.00000000000000000000, 0.00000000000000000000, 0.00000000000000000000, 0.00000000000000000000, 0.00000000000000000000
54.00000000000000000000, 0.00000000000000000000, 4152.30761718750000000000, 4162.05126953125000000000, 4174.35888671875000000000, 4158.46142578125000000000, 4166.66650390625000000000, 4194.35888671875000000000, 4175.89746093750000000000, 4160.51269531250000000000, 4118.46142578125000000000, 4178.46142578125000000000, 4160.00000000000000000000, 4196.92285156250000000000, 4181.53857421875000000000, 4171.28173828125000000000, 0.00000000000000000000, 2041.00000000000000000000, 2055.00000000000000000000, 0.00000000000000000000, 0.00000000000000000000, 2160.00000000000000000000, 645.00000000000000000000, 0.00000000000000000000, 0.00000000000000000000, 0.00000000000000000000, 0.00000000000000000000, 0.00000000000000000000, 0.00000000000000000000, 0.00000000000000000000, 0.00000000000000000000, 0.00000000000000000000, 0.00000000000000000000, 0.00000000000000000000, 0.00000000000000000000, 0.00000000000000000000, 0.00000000000000000000, 0.00000000000000000000, 0.00000000000000000000
55.00000000000000000000, 0.00000000000000000000, 4155.38427734375000000000, 4170.25634765625000000000, 4185.12792968750000000000, 4158.46142578125000000000, 4170.76904296875000000000, 4188.71777343750000000000, 4171.79492187500000000000, 4159.48730468750000000000, 4123.58984375000000000000, 4183.58984375000000000000, 4166.15380859375000000000, 4203.58984375000000000000, 4186.66650390625000000000, 4179.48730468750000000000, 0.00000000000000000000, 2042.00000000000000000000, 2056.00000000000000000000, 0.00000000000000000000, 0.00000000000000000000, 2160.00000000000000000000, 652.00000000000000000000, 0.00000000000000000000, 0.00000000000000000000, 0.00000000000000000000, 0.00000000000000000000, 0.00000000000000000000, 0.00000000000000000000, 0.00000000000000000000, 0.00000000000000000000, 0.00000000000000000000, 0.00000000000000000000, 0.00000000000000000000, 0.00000000000000000000, 0.00000000000000000000, 0.00000000000000000000, 0.00000000000000000000, 0.00000000000000000000
56.00000000000000000000, 0.00000000000000000000, 4158.97412109375000000000, 4170.25634765625000000000, 4207.17919921875000000000, 4164.10253906250000000000, 4167.17919921875000000000, 4184.61523437500000000000, 4172.82031250000000000000, 4158.97412109375000000000, 4123.07666015625000000000, 4173.33300781250000000000, 4168.71777343750000000000, 4208.20507812500000000000, 4189.74365234375000000000, 4185.64111328125000000000, 0.00000000000000000000, 2041.00000000000000000000, 2057.00000000000000000000, 0.00000000000000000000, 0.00000000000000000000, 2160.00000000000000000000, 660.00000000000000000000, 0.00000000000000000000, 0.00000000000000000000, 0.00000000000000000000, 0.00000000000000000000, 0.00000000000000000000, 0.00000000000000000000, 0.00000000000000000000, 0.00000000000000000000, 0.00000000000000000000, 0.00000000000000000000, 0.00000000000000000000, 0.00000000000000000000, 0.00000000000000000000, 0.00000000000000000000, 0.00000000000000000000, 0.00000000000000000000
57.00000000000000000000, 0.00000000000000000000, 4157.43603515625000000000, 4159.48730468750000000000, 4198.97412109375000000000, 4161.02539062500000000000, 4160.51269531250000000000, 4188.20507812500000000000, 4173.33300781250000000000, 4154.87158203125000000000, 4113.33300781250000000000, 4160.51269531250000000000, 4162.56396484375000000000, 4205.64111328125000000000, 4183.07666015625000000000, 4177.43603515625000000000, 0.00000000000000000000, 2043.00000000000000000000, 2056.00000000000000000000, 0.00000000000000000000, 0.00000000000000000000, 2160.00000000000000000000, 668.00000000000000000000, 0.00000000000000000000, 0.00000000000000000000, 0.00000000000000000000, 0.00000000000000000000, 0.00000000000000000000, 0.00000000000000000000, 0.00000000000000000000, 0.00000000000000000000, 0.00000000000000000000, 0.00000000000000000000, 0.00000000000000000000, 0.00000000000000000000, 0.00000000000000000000, 0.00000000000000000000, 0.00000000000000000000, 0.00000000000000000000
58.00000000000000000000, 0.00000000000000000000, 4152.30761718750000000000, 4162.05126953125000000000, 4181.53857421875000000000, 4156.41015625000000000000, 4163.07666015625000000000, 4187.17919921875000000000, 4170.76904296875000000000, 4151.79492187500000000000, 4107.17919921875000000000, 4162.05126953125000000000, 4157.43603515625000000000, 4204.61523437500000000000, 4174.87158203125000000000, 4170.76904296875000000000, 0.00000000000000000000, 2042.00000000000000000000, 2057.00000000000000000000, 0.00000000000000000000, 0.00000000000000000000, 2160.00000000000000000000, 676.00000000000000000000, 0.00000000000000000000, 0.00000000000000000000, 0.00000000000000000000, 0.00000000000000000000, 0.00000000000000000000, 0.00000000000000000000, 0.00000000000000000000, 0.00000000000000000000, 0.00000000000000000000, 0.00000000000000000000, 0.00000000000000000000, 0.00000000000000000000, 0.00000000000000000000, 0.00000000000000000000, 0.00000000000000000000, 0.00000000000000000000
59.00000000000000000000, 0.00000000000000000000, 4148.71777343750000000000, 4169.23046875000000000000, 4187.17919921875000000000, 4160.51269531250000000000, 4169.23046875000000000000, 4187.17919921875000000000, 4168.71777343750000000000, 4153.33300781250000000000, 4111.79492187500000000000, 4170.76904296875000000000, 4157.43603515625000000000, 4204.61523437500000000000, 4176.41015625000000000000, 4173.33300781250000000000, 0.00000000000000000000, 2042.00000000000000000000, 2056.00000000000000000000, 0.00000000000000000000, 0.00000000000000000000, 2160.00000000000000000000, 684.00000000000000000000, 0.00000000000000000000, 0.00000000000000000000, 0.00000000000000000000, 0.00000000000000000000, 0.00000000000000000000, 0.00000000000000000000, 0.00000000000000000000, 0.00000000000000000000, 0.00000000000000000000, 0.00000000000000000000, 0.00000000000000000000, 0.00000000000000000000, 0.00000000000000000000, 0.00000000000000000000, 0.00000000000000000000, 0.00000000000000000000
60.00000000000000000000, 0.00000000000000000000, 4150.25634765625000000000, 4160.51269531250000000000, 4197.94873046875000000000, 4161.02539062500000000000, 4164.10253906250000000000, 4191.28173828125000000000, 4169.74365234375000000000, 4157.43603515625000000000, 4113.84619140625000000000, 4162.56396484375000000000, 4153.33300781250000000000, 4202.56396484375000000000, 4175.38427734375000000000, 4172.82031250000000000000, 0.00000000000000000000, 2042.00000000000000000000, 2056.00000000000000000000, 0.00000000000000000000, 0.00000000000000000000, 2160.00000000000000000000, 691.00000000000000000000, 0.00000000000000000000, 0.00000000000000000000, 0.00000000000000000000, 0.00000000000000000000, 0.00000000000000000000, 0.00000000000000000000, 0.00000000000000000000, 0.00000000000000000000, 0.00000000000000000000, 0.00000000000000000000, 0.00000000000000000000, 0.00000000000000000000, 0.00000000000000000000, 0.00000000000000000000, 0.00000000000000000000, 0.00000000000000000000
61.00000000000000000000, 0.00000000000000000000, 4150.76904296875000000000, 4154.87158203125000000000, 4181.53857421875000000000, 4157.94873046875000000000, 4158.97412109375000000000, 4190.25634765625000000000, 4170.25634765625000000000, 4156.41015625000000000000, 4110.76904296875000000000, 4157.43603515625000000000, 4154.35888671875000000000, 4200.51269531250000000000, 4173.84619140625000000000, 4170.76904296875000000000, 0.00000000000000000000, 2041.00000000000000000000, 2057.00000000000000000000, 0.00000000000000000000, 0.00000000000000000000, 2160.00000000000000000000, 700.00000000000000000000, 0.00000000000000000000, 0.00000000000000000000, 0.00000000000000000000, 0.00000000000000000000, 0.00000000000000000000, 0.00000000000000000000, 0.00000000000000000000, 0.00000000000000000000, 0.00000000000000000000, 0.00000000000000000000, 0.00000000000000000000, 0.00000000000000000000, 0.00000000000000000000, 0.00000000000000000000, 0.00000000000000000000, 0.00000000000000000000
62.00000000000000000000, 0.00000000000000000000, 4151.79492187500000000000, 4166.15380859375000000000, 4181.53857421875000000000, 4161.53857421875000000000, 4162.56396484375000000000, 4188.71777343750000000000, 4169.23046875000000000000, 4155.89746093750000000000, 4113.33300781250000000000, 4167.69238281250000000000, 4165.64111328125000000000, 4203.58984375000000000000, 4180.00000000000000000000, 4175.38427734375000000000, 0.00000000000000000000, 2041.00000000000000000000, 2057.00000000000000000000, 0.00000000000000000000, 0.00000000000000000000, 2160.00000000000000000000, 707.00000000000000000000, 0.00000000000000000000, 0.00000000000000000000, 0.00000000000000000000, 0.00000000000000000000, 0.00000000000000000000, 0.00000000000000000000, 0.00000000000000000000, 0.00000000000000000000, 0.00000000000000000000, 0.00000000000000000000, 0.00000000000000000000, 0.00000000000000000000, 0.00000000000000000000, 0.00000000000000000000, 0.00000000000000000000, 0.00000000000000000000
63.00000000000000000000, 0.00000000000000000000, 4154.35888671875000000000, 4164.10253906250000000000, 4204.10253906250000000000, 4159.48730468750000000000, 4163.07666015625000000000, 4191.28173828125000000000, 4170.25634765625000000000, 4159.48730468750000000000, 4119.48730468750000000000, 4172.82031250000000000000, 4168.71777343750000000000, 4205.12792968750000000000, 4182.56396484375000000000, 4182.05126953125000000000, 0.00000000000000000000, 2042.00000000000000000000, 2058.00000000000000000000, 0.00000000000000000000, 0.00000000000000000000, 2160.00000000000000000000, 715.00000000000000000000, 0.00000000000000000000, 0.00000000000000000000, 0.00000000000000000000, 0.00000000000000000000, 0.00000000000000000000, 0.00000000000000000000, 0.00000000000000000000, 0.00000000000000000000, 0.00000000000000000000, 0.00000000000000000000, 0.00000000000000000000, 0.00000000000000000000, 0.00000000000000000000, 0.00000000000000000000, 0.00000000000000000000, 0.00000000000000000000
64.00000000000000000000, 0.00000000000000000000, 4150.76904296875000000000, 4153.33300781250000000000, 4199.48730468750000000000, 4142.56396484375000000000, 4156.41015625000000000000, 4194.35888671875000000000, 4171.79492187500000000000, 4162.05126953125000000000, 4117.94873046875000000000, 4167.17919921875000000000, 4155.89746093750000000000, 4204.61523437500000000000, 4176.92285156250000000000, 4181.02539062500000000000, 620.00000000000000000000, 2039.00000000000000000000, 2058.00000000000000000000, 0.00000000000000000000, 0.00000000000000000000, 2160.00000000000000000000, 723.00000000000000000000, 4.00000000000000000000, 0.00000000000000000000, 0.00000000000000000000, 0.00000000000000000000, 0.00000000000000000000, 0.00000000000000000000, 0.00000000000000000000, 0.00000000000000000000, 0.00000000000000000000, 0.00000000000000000000, 0.00000000000000000000, 0.00000000000000000000, 0.00000000000000000000, 0.00000000000000000000, 0.00000000000000000000, 0.00000000000000000000
65.00000000000000000000, 0.00000000000000000000, 4149.74365234375000000000, 4160.00000000000000000000, 4176.41015625000000000000, 4147.17919921875000000000, 4157.43603515625000000000, 4190.25634765625000000000, 4171.28173828125000000000, 4157.43603515625000000000, 4111.79492187500000000000, 4167.69238281250000000000, 4154.87158203125000000000, 4207.69238281250000000000, 4178.46142578125000000000, 4178.97412109375000000000, 817.00000000000000000000, 2040.00000000000000000000, 2059.00000000000000000000, 0.00000000000000000000, 0.00000000000000000000, 2160.00000000000000000000, 731.00000000000000000000, 4.00000000000000000000, 4.00000000000000000000, 0.00000000000000000000, 0.00000000000000000000, 0.00000000000000000000, 0.00000000000000000000, 0.00000000000000000000, 0.00000000000000000000, 0.00000000000000000000, 0.00000000000000000000, 0.00000000000000000000, 0.00000000000000000000, 0.00000000000000000000, 0.00000000000000000000, 0.00000000000000000000, 0.00000000000000000000
66.00000000000000000000, 0.00000000000000000000, 4159.48730468750000000000, 4171.28173828125000000000, 4191.79492187500000000000, 4168.71777343750000000000, 4167.69238281250000000000, 4193.84619140625000000000, 4175.89746093750000000000, 4153.33300781250000000000, 4114.35888671875000000000, 4173.84619140625000000000, 4166.66650390625000000000, 4216.41015625000000000000, 4187.69238281250000000000, 4184.10253906250000000000, 678.00000000000000000000, 2042.00000000000000000000, 2058.00000000000000000000, 0.00000000000000000000, 0.00000000000000000000, 2160.00000000000000000000, 739.00000000000000000000, 4.00000000000000000000, 4.00000000000000000000, 4.00000000000000000000, 0.00000000000000000000, 0.00000000000000000000, 0.00000000000000000000, 0.00000000000000000000, 0.00000000000000000000, 0.00000000000000000000, 0.00000000000000000000, 0.00000000000000000000, 0.00000000000000000000, 0.00000000000000000000, 0.00000000000000000000, 4.00000000000000000000, 0.00000000000000000000
67.00000000000000000000, 0.00000000000000000000, 4165.64111328125000000000, 4164.61523437500000000000, 4210.76904296875000000000, 4163.07666015625000000000, 4170.25634765625000000000, 4207.69238281250000000000, 4179.48730468750000000000, 4153.84619140625000000000, 4115.89746093750000000000, 4166.66650390625000000000, 4166.15380859375000000000, 4216.41015625000000000000, 4189.23046875000000000000, 4186.15380859375000000000, 494.00000000000000000000, 2041.00000000000000000000, 2058.00000000000000000000, 0.00000000000000000000, 0.00000000000000000000, 2160.00000000000000000000, 747.00000000000000000000, 4.00000000000000000000, 4.00000000000000000000, 4.00000000000000000000, 4.00000000000000000000, 0.00000000000000000000, 0.00000000000000000000, 0.00000000000000000000, 0.00000000000000000000, 0.00000000000000000000, 0.00000000000000000000, 0.00000000000000000000, 0.00000000000000000000, 0.00000000000000000000, 0.00000000000000000000, 4.00000000000000000000, 4.00000000000000000000
68.00000000000000000000, 0.00000000000000000000, 4154.35888671875000000000, 4156.41015625000000000000, 4187.17919921875000000000, 4154.35888671875000000000, 4163.58984375000000000000, 4202.05126953125000000000, 4172.30761718750000000000, 4154.35888671875000000000, 4110.76904296875000000000, 4160.00000000000000000000, 4156.92285156250000000000, 4203.07666015625000000000, 4184.10253906250000000000, 4174.35888671875000000000, 853.00000000000000000000, 2041.00000000000000000000, 2056.00000000000000000000, 0.00000000000000000000, 0.00000000000000000000, 2160.00000000000000000000, 755.00000000000000000000, 4.00000000000000000000, 4.00000000000000000000, 4.00000000000000000000, 4.00000000000000000000, 4.00000000000000000000, 0.00000000000000000000, 0.00000000000000000000, 0.00000000000000000000, 0.00000000000000000000, 0.00000000000000000000, 0.00000000000000000000, 0.00000000000000000000, 0.00000000000000000000, 0.00000000000000000000, 4.00000000000000000000, 4.00000000000000000000
69.00000000000000000000, 0.00000000000000000000, 4149.74365234375000000000, 4161.53857421875000000000, 4177.43603515625000000000, 4161.53857421875000000000, 4161.02539062500000000000, 4184.61523437500000000000, 4166.66650390625000000000, 4154.87158203125000000000, 4109.74365234375000000000, 4165.12792968750000000000, 4150.25634765625000000000, 4194.87158203125000000000, 4175.89746093750000000000, 4165.12792968750000000000, 548.00000000000000000000, 2040.00000000000000000000, 2056.00000000000000000000, 0.00000000000000000000, 0.00000000000000000000, 2160.00000000000000000000, 763.00000000000000000000, 4.00000000000000000000, 4.00000000000000000000, 4.00000000000000000000, 4.00000000000000000000, 4.00000000000000000000, 4.00000000000000000000, 0.00000000000000000000, 0.00000000000000000000, 0.00000000000000000000, 0.00000000000000000000, 0.00000000000000000000, 0.00000000000000000000, 0.00000000000000000000, 0.00000000000000000000, 4.00000000000000000000, 4.00000000000000000000
70.00000000000000000000, 0.00000000000000000000, 4152.30761718750000000000, 4164.10253906250000000000, 4196.92285156250000000000, 4156.92285156250000000000, 4164.61523437500000000000, 4192.82031250000000000000, 4172.82031250000000000000, 4155.38427734375000000000, 4114.35888671875000000000, 4168.20507812500000000000, 4152.30761718750000000000, 4194.35888671875000000000, 4171.79492187500000000000, 4165.12792968750000000000, 719.00000000000000000000, 2040.00000000000000000000, 2057.00000000000000000000, 0.00000000000000000000, 0.00000000000000000000, 2160.00000000000000000000, 770.00000000000000000000, 4.00000000000000000000, 4.00000000000000000000, 4.00000000000000000000, 4.00000000000000000000, 4.00000000000000000000, 4.00000000000000000000, 4.00000000000000000000, 0.00000000000000000000, 0.00000000000000000000, 0.00000000000000000000, 0.00000000000000000000, 0.00000000000000000000, 0.00000000000000000000, 0.00000000000000000000, 4.00000000000000000000, 4.00000000000000000000
71.00000000000000000000, 0.00000000000000000000, 4152.30761718750000000000, 4160.51269531250000000000, 4196.41015625000000000000, 4147.69238281250000000000, 4166.66650390625000000000, 4212.30761718750000000000, 4182.56396484375000000000, 4156.41015625000000000000, 4119.48730468750000000000, 4166.15380859375000000000, 4156.41015625000000000000, 4197.94873046875000000000, 4178.46142578125000000000, 4167.69238281250000000000, 240.00000000000000000000, 2040.00000000000000000000, 2058.00000000000000000000, 0.00000000000000000000, 0.00000000000000000000, 2160.00000000000000000000, 778.00000000000000000000, 4.00000000000000000000, 4.00000000000000000000, 4.00000000000000000000, 4.00000000000000000000, 4.00000000000000000000, 4.00000000000000000000, 4.00000000000000000000, 2.00000000000000000000, 0.00000000000000000000, 0.00000000000000000000, 0.00000000000000000000, 0.00000000000000000000, 0.00000000000000000000, 0.00000000000000000000, 4.00000000000000000000, 4.00000000000000000000
72.00000000000000000000, 0.00000000000000000000, 4151.79492187500000000000, 4159.48730468750000000000, 4172.30761718750000000000, 4158.97412109375000000000, 4169.23046875000000000000, 4207.69238281250000000000, 4181.02539062500000000000, 4155.38427734375000000000, 4121.02539062500000000000, 4171.28173828125000000000, 4154.87158203125000000000, 4195.38427734375000000000, 4182.56396484375000000000, 4165.12792968750000000000, 476.00000000000000000000, 2041.00000000000000000000, 2058.00000000000000000000, 0.00000000000000000000, 0.00000000000000000000, 2160.00000000000000000000, 786.00000000000000000000, 4.00000000000000000000, 4.00000000000000000000, 4.00000000000000000000, 4.00000000000000000000, 4.00000000000000000000, 4.00000000000000000000, 4.00000000000000000000, 2.00000000000000000000, 4.00000000000000000000, 0.00000000000000000000, 0.00000000000000000000, 0.00000000000000000000, 0.00000000000000000000, 0.00000000000000000000, 4.00000000000000000000, 4.00000000000000000000
73.00000000000000000000, 0.00000000000000000000, 4150.76904296875000000000, 4163.58984375000000000000, 4178.46142578125000000000, 4163.58984375000000000000, 4169.74365234375000000000, 4194.35888671875000000000, 4170.25634765625000000000, 4152.30761718750000000000, 4115.89746093750000000000, 4167.69238281250000000000, 4150.76904296875000000000, 4188.20507812500000000000, 4171.79492187500000000000, 4160.51269531250000000000, 850.00000000000000000000, 2040.00000000000000000000, 2056.00000000000000000000, 0.00000000000000000000, 0.00000000000000000000, 2160.00000000000000000000, 794.00000000000000000000, 4.00000000000000000000, 4.00000000000000000000, 4.00000000000000000000, 4.00000000000000000000, 4.00000000000000000000, 4.00000000000000000000, 4.00000000000000000000, 2.00000000000000000000, 4.00000000000000000000, 4.00000000000000000000, 0.00000000000000000000, 0.00000000000000000000, 0.00000000000000000000, 0.00000000000000000000, 4.00000000000000000000, 4.00000000000000000000
74.00000000000000000000, 0.00000000000000000000, 4146.15380859375000000000, 4154.87158203125000000000, 4193.33300781250000000000, 4150.76904296875000000000, 4164.61523437500000000000, 4191.79492187500000000000, 4162.56396484375000000000, 4148.71777343750000000000, 4111.79492187500000000000, 4156.92285156250000000000, 4153.84619140625000000000, 4188.20507812500000000000, 4172.30761718750000000000, 4166.15380859375000000000, 826.00000000000000000000, 2038.00000000000000000000, 2058.00000000000000000000, 0.00000000000000000000, 0.00000000000000000000, 2160.00000000000000000000, 802.00000000000000000000, 4.00000000000000000000, 4.00000000000000000000, 4.00000000000000000000, 4.00000000000000000000, 4.00000000000000000000, 4.00000000000000000000, 4.00000000000000000000, 2.00000000000000000000, 4.00000000000000000000, 4.00000000000000000000, 4.00000000000000000000, 0.00000000000000000000, 0.00000000000000000000, 0.00000000000000000000, 4.00000000000000000000, 4.00000000000000000000
75.00000000000000000000, 0.00000000000000000000, 4150.76904296875000000000, 4146.15380859375000000000, 4184.61523437500000000000, 4151.79492187500000000000, 4159.48730468750000000000, 4200.51269531250000000000, 4167.69238281250000000000, 4148.71777343750000000000, 4111.79492187500000000000, 4159.48730468750000000000, 4154.87158203125000000000, 4198.97412109375000000000, 4182.56396484375000000000, 4177.43603515625000000000, 768.00000000000000000000, 2039.00000000000000000000, 2059.00000000000000000000, 0.00000000000000000000, 0.00000000000000000000, 2160.00000000000000000000, 810.00000000000000000000, 4.00000000000000000000, 4.00000000000000000000, 4.00000000000000000000, 4.00000000000000000000, 4.00000000000000000000, 4.00000000000000000000, 4.00000000000000000000, 2.00000000000000000000, 4.00000000000000000000, 4.00000000000000000000, 4.00000000000000000000, 4.00000000000000000000, 0.00000000000000000000, 0.00000000000000000000, 4.00000000000000000000, 4.00000000000000000000
76.00000000000000000000, 0.00000000000000000000, 4155.38427734375000000000, 4152.30761718750000000000, 4175.38427734375000000000, 4158.46142578125000000000, 4166.15380859375000000000, 4207.17919921875000000000, 4170.76904296875000000000, 4149.23046875000000000000, 4113.33300781250000000000, 4172.30761718750000000000, 4153.33300781250000000000, 4203.58984375000000000000, 4184.10253906250000000000, 4179.48730468750000000000, 790.00000000000000000000, 2040.00000000000000000000, 2058.00000000000000000000, 0.00000000000000000000, 0.00000000000000000000, 2160.00000000000000000000, 818.00000000000000000000, 4.00000000000000000000, 4.00000000000000000000, 4.00000000000000000000, 4.00000000000000000000, 4.00000000000000000000, 4.00000000000000000000, 4.00000000000000000000, 2.00000000000000000000, 4.00000000000000000000, 4.00000000000000000000, 4.00000000000000000000, 4.00000000000000000000, 4.00000000000000000000, 0.00000000000000000000, 4.00000000000000000000, 4.00000000000000000000
77.00000000000000000000, 0.00000000000000000000, 4153.33300781250000000000, 4161.02539062500000000000, 4196.41015625000000000000, 4148.71777343750000000000, 4167.69238281250000000000, 4203.58984375000000000000, 4165.12792968750000000000, 4153.33300781250000000000, 4113.33300781250000000000, 4168.20507812500000000000, 4153.33300781250000000000, 4200.00000000000000000000, 4177.43603515625000000000, 4175.89746093750000000000, 695.00000000000000000000, 2038.00000000000000000000, 2058.00000000000000000000, 0.00000000000000000000, 0.00000000000000000000, 2160.00000000000000000000, 826.00000000000000000000, 4.00000000000000000000, 4.00000000000000000000, 4.00000000000000000000, 4.00000000000000000000, 4.00000000000000000000, 4.00000000000000000000, 4.00000000000000000000, 2.00000000000000000000, 4.00000000000000000000, 4.00000000000000000000, 4.00000000000000000000, 4.00000000000000000000, 4.00000000000000000000, 4.00000000000000000000, 4.00000000000000000000, 4.00000000000000000000
78.00000000000000000000, 0.00000000000000000000, 4152.30761718750000000000, 4153.33300781250000000000, 4200.00000000000000000000, 4149.23046875000000000000, 4162.05126953125000000000, 4201.53857421875000000000, 4162.56396484375000000000, 4153.33300781250000000000, 4110.76904296875000000000, 4153.84619140625000000000, 4152.82031250000000000000, 4197.43603515625000000000, 4173.84619140625000000000, 4174.35888671875000000000, 826.00000000000000000000, 2038.00000000000000000000, 2060.00000000000000000000, 0.00000000000000000000, 0.00000000000000000000, 2160.00000000000000000000, 834.00000000000000000000, 4.00000000000000000000, 4.00000000000000000000, 4.00000000000000000000, 4.00000000000000000000, 4.00000000000000000000, 4.00000000000000000000, 4.00000000000000000000, 2.00000000000000000000, 4.00000000000000000000, 4.00000000000000000000, 4.00000000000000000000, 4.00000000000000000000, 4.00000000000000000000, 4.00000000000000000000, 4.00000000000000000000, 4.00000000000000000000
79.00000000000000000000, 0.00000000000000000000, 4155.38427734375000000000, 4148.20507812500000000000, 4178.97412109375000000000, 4164.61523437500000000000, 4165.64111328125000000000, 4209.23046875000000000000, 4169.23046875000000000000, 4152.30761718750000000000, 4109.74365234375000000000, 4150.76904296875000000000, 4152.82031250000000000000, 4200.51269531250000000000, 4173.33300781250000000000, 4174.35888671875000000000, 768.00000000000000000000, 2040.00000000000000000000, 2060.00000000000000000000, 0.00000000000000000000, 0.00000000000000000000, 2160.00000000000000000000, 841.00000000000000000000, 4.00000000000000000000, 4.00000000000000000000, 4.00000000000000000000, 4.00000000000000000000, 4.00000000000000000000, 4.00000000000000000000, 4.00000000000000000000, 2.00000000000000000000, 4.00000000000000000000, 4.00000000000000000000, 4.00000000000000000000, 4.00000000000000000000, 4.00000000000000000000, 4.00000000000000000000, 4.00000000000000000000, 4.00000000000000000000
80.00000000000000000000, 0.00000000000000000000, 4154.35888671875000000000, 4153.33300781250000000000, 4182.05126953125000000000, 4163.58984375000000000000, 4172.82031250000000000000, 4214.87158203125000000000, 4172.30761718750000000000, 4153.84619140625000000000, 4115.89746093750000000000, 4163.07666015625000000000, 4159.48730468750000000000, 4206.15380859375000000000, 4181.02539062500000000000, 4179.48730468750000000000, 790.00000000000000000000, 2039.00000000000000000000, 2058.00000000000000000000, 0.00000000000000000000, 0.00000000000000000000, 2160.00000000000000000000, 849.00000000000000000000, 4.00000000000000000000, 4.00000000000000000000, 4.00000000000000000000, 4.00000000000000000000, 4.00000000000000000000, 4.00000000000000000000, 4.00000000000000000000, 2.00000000000000000000, 4.00000000000000000000, 4.00000000000000000000, 4.00000000000000000000, 4.00000000000000000000, 4.00000000000000000000, 4.00000000000000000000, 4.00000000000000000000, 4.00000000000000000000
81.00000000000000000000, 0.00000000000000000000, 4153.33300781250000000000, 4153.33300781250000000000, 4201.53857421875000000000, 4150.25634765625000000000, 4168.71777343750000000000, 4216.92285156250000000000, 4167.69238281250000000000, 4153.84619140625000000000, 4118.97412109375000000000, 4170.25634765625000000000, 4162.05126953125000000000, 4206.66650390625000000000, 4186.66650390625000000000, 4185.12792968750000000000, 695.00000000000000000000, 2039.00000000000000000000, 2057.00000000000000000000, 0.00000000000000000000, 0.00000000000000000000, 2160.00000000000000000000, 857.00000000000000000000, 4.00000000000000000000, 4.00000000000000000000, 4.00000000000000000000, 4.00000000000000000000, 4.00000000000000000000, 4.00000000000000000000, 4.00000000000000000000, 2.00000000000000000000, 4.00000000000000000000, 4.00000000000000000000, 4.00000000000000000000, 4.00000000000000000000, 4.00000000000000000000, 4.00000000000000000000, 4.00000000000000000000, 4.00000000000000000000
82.00000000000000000000, 0.00000000000000000000, 4149.74365234375000000000, 4142.56396484375000000000, 4183.58984375000000000000, 4149.74365234375000000000, 4162.05126953125000000000, 4211.28173828125000000000, 4162.56396484375000000000, 4149.23046875000000000000, 4113.84619140625000000000, 4161.53857421875000000000, 4151.28173828125000000000, 4198.46142578125000000000, 4177.94873046875000000000, 4174.87158203125000000000, 826.00000000000000000000, 2040.00000000000000000000, 2058.00000000000000000000, 0.00000000000000000000, 0.00000000000000000000, 2160.00000000000000000000, 865.00000000000000000000, 4.00000000000000000000, 4.00000000000000000000, 4.00000000000000000000, 4.00000000000000000000, 4.00000000000000000000, 4.00000000000000000000, 4.00000000000000000000, 2.00000000000000000000, 4.00000000000000000000, 4.00000000000000000000, 4.00000000000000000000, 4.00000000000000000000, 4.00000000000000000000, 4.00000000000000000000, 4.00000000000000000000, 4.00000000000000000000
83.00000000000000000000, 0.00000000000000000000, 4147.69238281250000000000, 4147.69238281250000000000, 4168.20507812500000000000, 4145.64111328125000000000, 4161.02539062500000000000, 4210.76904296875000000000, 4163.07666015625000000000, 4151.79492187500000000000, 4113.84619140625000000000, 4156.41015625000000000000, 4148.20507812500000000000, 4196.41015625000000000000, 4172.82031250000000000000, 4167.17919921875000000000, 768.00000000000000000000, 2041.00000000000000000000, 2058.00000000000000000000, 0.00000000000000000000, 0.00000000000000000000, 2160.00000000000000000000, 873.00000000000000000000, 4.00000000000000000000, 4.00000000000000000000, 4.00000000000000000000, 4.00000000000000000000, 4.00000000000000000000, 4.00000000000000000000, 4.00000000000000000000, 2.00000000000000000000, 4.00000000000000000000, 4.00000000000000000000, 4.00000000000000000000, 4.00000000000000000000, 4.00000000000000000000, 4.00000000000000000000, 4.00000000000000000000, 4.00000000000000000000
84.00000000000000000000, 0.00000000000000000000, 4150.76904296875000000000, 4156.92285156250000000000, 4187.69238281250000000000, 4145.64111328125000000000, 4162.56396484375000000000, 4218.46142578125000000000, 4165.64111328125000000000, 4155.38427734375000000000, 4116.92285156250000000000, 4158.97412109375000000000, 4156.92285156250000000000, 4197.94873046875000000000, 4175.38427734375000000000, 4172.82031250000000000000, 790.00000000000000000000, 2042.00000000000000000000, 2057.00000000000000000000, 0.00000000000000000000, 0.00000000000000000000, 2160.00000000000000000000, 881.00000000000000000000, 4.00000000000000000000, 4.00000000000000000000, 4.00000000000000000000, 4.00000000000000000000, 4.00000000000000000000, 4.00000000000000000000, 4.00000000000000000000, 2.00000000000000000000, 4.00000000000000000000, 4.00000000000000000000, 4.00000000000000000000, 4.00000000000000000000, 4.00000000000000000000, 4.00000000000000000000, 4.00000000000000000000, 4.00000000000000000000
85.00000000000000000000, 0.00000000000000000000, 4149.74365234375000000000, 4152.82031250000000000000, 4190.25634765625000000000, 4164.10253906250000000000, 4167.17919921875000000000, 4218.46142578125000000000, 4162.56396484375000000000, 4151.28173828125000000000, 4112.30761718750000000000, 4156.41015625000000000000, 4150.25634765625000000000, 4189.74365234375000000000, 4170.76904296875000000000, 4169.23046875000000000000, 695.00000000000000000000, 2042.00000000000000000000, 2058.00000000000000000000, 0.00000000000000000000, 0.00000000000000000000, 2160.00000000000000000000, 889.00000000000000000000, 4.00000000000000000000, 4.00000000000000000000, 4.00000000000000000000, 4.00000000000000000000, 4.00000000000000000000, 4.00000000000000000000, 4.00000000000000000000, 2.00000000000000000000, 4.00000000000000000000, 4.00000000000000000000, 4.00000000000000000000, 4.00000000000000000000, 4.00000000000000000000, 4.00000000000000000000, 4.00000000000000000000, 4.00000000000000000000
86.00000000000000000000, 0.00000000000000000000, 4146.66650390625000000000, 4148.20507812500000000000, 4170.25634765625000000000, 4167.69238281250000000000, 4169.74365234375000000000, 4213.84619140625000000000, 4161.02539062500000000000, 4148.20507812500000000000, 4108.71777343750000000000, 4147.69238281250000000000, 4133.84619140625000000000, 4182.56396484375000000000, 4162.05126953125000000000, 4156.92285156250000000000, 826.00000000000000000000, 2042.00000000000000000000, 2059.00000000000000000000, 0.00000000000000000000, 0.00000000000000000000, 2160.00000000000000000000, 897.00000000000000000000, 4.00000000000000000000, 4.00000000000000000000, 4.00000000000000000000, 4.00000000000000000000, 4.00000000000000000000, 4.00000000000000000000, 4.00000000000000000000, 2.00000000000000000000, 4.00000000000000000000, 4.00000000000000000000, 4.00000000000000000000, 4.00000000000000000000, 4.00000000000000000000, 4.00000000000000000000, 4.00000000000000000000, 4.00000000000000000000
87.00000000000000000000, 0.00000000000000000000, 4143.07666015625000000000, 4151.28173828125000000000, 4167.17919921875000000000, 4146.66650390625000000000, 4168.71777343750000000000, 4222.56396484375000000000, 4163.58984375000000000000, 4150.25634765625000000000, 4109.74365234375000000000, 4146.66650390625000000000, 4136.41015625000000000000, 4183.58984375000000000000, 4158.46142578125000000000, 4150.76904296875000000000, 768.00000000000000000000, 2042.00000000000000000000, 2060.00000000000000000000, 0.00000000000000000000, 0.00000000000000000000, 2160.00000000000000000000, 904.00000000000000000000, 4.00000000000000000000, 4.00000000000000000000, 4.00000000000000000000, 4.00000000000000000000, 4.00000000000000000000, 4.00000000000000000000, 4.00000000000000000000, 2.00000000000000000000, 4.00000000000000000000, 4.00000000000000000000, 4.00000000000000000000, 4.00000000000000000000, 4.00000000000000000000, 4.00000000000000000000, 4.00000000000000000000, 4.00000000000000000000
88.00000000000000000000, 0.00000000000000000000, 4140.00000000000000000000, 4144.10253906250000000000, 4175.38427734375000000000, 4144.61523437500000000000, 4167.17919921875000000000, 4230.76904296875000000000, 4165.12792968750000000000, 4151.79492187500000000000, 4112.82031250000000000000, 4147.69238281250000000000, 4137.43603515625000000000, 4182.05126953125000000000, 4155.89746093750000000000, 4152.30761718750000000000, 790.00000000000000000000, 2042.00000000000000000000, 2058.00000000000000000000, 0.00000000000000000000, 0.00000000000000000000, 2160.00000000000000000000, 912.00000000000000000000, 4.00000000000000000000, 4.00000000000000000000, 4.00000000000000000000, 4.00000000000000000000, 4.00000000000000000000, 4.00000000000000000000, 4.00000000000000000000, 2.00000000000000000000, 4.00000000000000000000, 4.00000000000000000000, 4.00000000000000000000, 4.00000000000000000000, 4.00000000000000000000, 4.00000000000000000000, 4.00000000000000000000, 4.00000000000000000000
89.00000000000000000000, 0.00000000000000000000, 4142.56396484375000000000, 4144.61523437500000000000, 4162.05126953125000000000, 4166.15380859375000000000, 4170.25634765625000000000, 4226.66650390625000000000, 4162.05126953125000000000, 4150.76904296875000000000, 4114.87158203125000000000, 4149.23046875000000000000, 4133.84619140625000000000, 4182.56396484375000000000, 4162.56396484375000000000, 4156.92285156250000000000, 695.00000000000000000000, 2043.00000000000000000000, 2060.00000000000000000000, 0.00000000000000000000, 0.00000000000000000000, 2160.00000000000000000000, 920.00000000000000000000, 4.00000000000000000000, 4.00000000000000000000, 4.00000000000000000000, 4.00000000000000000000, 4.00000000000000000000, 4.00000000000000000000, 4.00000000000000000000, 2.00000000000000000000, 4.00000000000000000000, 4.00000000000000000000, 4.00000000000000000000, 4.00000000000000000000, 4.00000000000000000000, 4.00000000000000000000, 4.00000000000000000000, 4.00000000000000000000
90.00000000000000000000, 0.00000000000000000000, 4151.28173828125000000000, 4160.51269531250000000000, 4159.48730468750000000000, 4153.33300781250000000000, 4171.28173828125000000000, 4222.56396484375000000000, 4161.53857421875000000000, 4154.35888671875000000000, 4116.92285156250000000000, 4156.92285156250000000000, 4147.69238281250000000000, 4195.38427734375000000000, 4172.82031250000000000000, 4163.07666015625000000000, 826.00000000000000000000, 2043.00000000000000000000, 2060.00000000000000000000, 0.00000000000000000000, 0.00000000000000000000, 2160.00000000000000000000, 928.00000000000000000000, 4.00000000000000000000, 4.00000000000000000000, 4.00000000000000000000, 4.00000000000000000000, 4.00000000000000000000, 4.00000000000000000000, 4.00000000000000000000, 2.00000000000000000000, 4.00000000000000000000, 4.00000000000000000000, 4.00000000000000000000, 4.00000000000000000000, 4.00000000000000000000, 4.00000000000000000000, 4.00000000000000000000, 4.00000000000000000000
91.00000000000000000000, 0.00000000000000000000, 4152.30761718750000000000, 4151.79492187500000000000, 4177.94873046875000000000, 4138.97412109375000000000, 4168.71777343750000000000, 4221.02539062500000000000, 4161.53857421875000000000, 4155.38427734375000000000, 4118.97412109375000000000, 4161.02539062500000000000, 4158.97412109375000000000, 4197.94873046875000000000, 4172.82031250000000000000, 4163.58984375000000000000, 768.00000000000000000000, 2042.00000000000000000000, 2060.00000000000000000000, 0.00000000000000000000, 0.00000000000000000000, 2160.00000000000000000000, 936.00000000000000000000, 4.00000000000000000000, 4.00000000000000000000, 4.00000000000000000000, 4.00000000000000000000, 4.00000000000000000000, 4.00000000000000000000, 4.00000000000000000000, 2.00000000000000000000, 4.00000000000000000000, 4.00000000000000000000, 4.00000000000000000000, 4.00000000000000000000, 4.00000000000000000000, 4.00000000000000000000, 4.00000000000000000000, 4.00000000000000000000
92.00000000000000000000, 0.00000000000000000000, 4153.84619140625000000000, 4139.48730468750000000000, 4184.10253906250000000000, 4167.17919921875000000000, 4164.61523437500000000000, 4226.15380859375000000000, 4162.05126953125000000000, 4156.41015625000000000000, 4122.56396484375000000000, 4162.56396484375000000000, 4153.33300781250000000000, 4195.38427734375000000000, 4173.84619140625000000000, 4167.17919921875000000000, 790.00000000000000000000, 2043.00000000000000000000, 2060.00000000000000000000, 0.00000000000000000000, 0.00000000000000000000, 2160.00000000000000000000, 944.00000000000000000000, 4.00000000000000000000, 4.00000000000000000000, 4.00000000000000000000, 4.00000000000000000000, 4.00000000000000000000, 4.00000000000000000000, 4.00000000000000000000, 2.00000000000000000000, 4.00000000000000000000, 4.00000000000000000000, 4.00000000000000000000, 4.00000000000000000000, 4.00000000000000000000, 4.00000000000000000000, 4.00000000000000000000, 4.00000000000000000000
93.00000000000000000000, 0.00000000000000000000, 4153.84619140625000000000, 4153.84619140625000000000, 4160.51269531250000000000, 4176.92285156250000000000, 4167.17919921875000000000, 4231.28173828125000000000, 4165.12792968750000000000, 4158.46142578125000000000, 4124.10253906250000000000, 4169.74365234375000000000, 4153.33300781250000000000, 4200.00000000000000000000, 4182.56396484375000000000, 4172.82031250000000000000, 695.00000000000000000000, 2042.00000000000000000000, 2061.00000000000000000000, 0.00000000000000000000, 0.00000000000000000000, 2160.00000000000000000000, 952.00000000000000000000, 4.00000000000000000000, 4.00000000000000000000, 4.00000000000000000000, 4.00000000000000000000, 4.00000000000000000000, 4.00000000000000000000, 4.00000000000000000000, 2.00000000000000000000, 4.00000000000000000000, 4.00000000000000000000, 4.00000000000000000000, 4.00000000000000000000, 4.00000000000000000000, 4.00000000000000000000, 4.00000000000000000000, 4.00000000000000000000
94.00000000000000000000, 0.00000000000000000000, 4148.71777343750000000000, 4160.00000000000000000000, 4157.94873046875000000000, 4145.12792968750000000000, 4170.25634765625000000000, 4225.64111328125000000000, 4163.58984375000000000000, 4159.48730468750000000000, 4119.48730468750000000000, 4166.15380859375000000000, 4155.89746093750000000000, 4202.05126953125000000000, 4179.48730468750000000000, 4167.17919921875000000000, 826.00000000000000000000, 2043.00000000000000000000, 2058.00000000000000000000, 0.00000000000000000000, 0.00000000000000000000, 2160.00000000000000000000, 960.00000000000000000000, 4.00000000000000000000, 4.00000000000000000000, 4.00000000000000000000, 4.00000000000000000000, 4.00000000000000000000, 4.00000000000000000000, 4.00000000000000000000, 2.00000000000000000000, 4.00000000000000000000, 4.00000000000000000000, 4.00000000000000000000, 4.00000000000000000000, 4.00000000000000000000, 4.00000000000000000000, 4.00000000000000000000, 4.00000000000000000000
95.00000000000000000000, 0.00000000000000000000, 4146.66650390625000000000, 4140.51269531250000000000, 4173.84619140625000000000, 4146.15380859375000000000, 4165.12792968750000000000, 4221.53857421875000000000, 4159.48730468750000000000, 4154.87158203125000000000, 4122.05126953125000000000, 4156.92285156250000000000, 4156.41015625000000000000, 4198.46142578125000000000, 4177.43603515625000000000, 4165.12792968750000000000, 768.00000000000000000000, 2043.00000000000000000000, 2058.00000000000000000000, 0.00000000000000000000, 0.00000000000000000000, 2160.00000000000000000000, 968.00000000000000000000, 4.00000000000000000000, 4.00000000000000000000, 4.00000000000000000000, 4.00000000000000000000, 4.00000000000000000000, 4.00000000000000000000, 4.00000000000000000000, 2.00000000000000000000, 4.00000000000000000000, 4.00000000000000000000, 4.00000000000000000000, 4.00000000000000000000, 4.00000000000000000000, 4.00000000000000000000, 4.00000000000000000000, 4.00000000000000000000
96.00000000000000000000, 0.00000000000000000000, 4148.20507812500000000000, 4139.48730468750000000000, 4163.58984375000000000000, 4162.05126953125000000000, 4158.46142578125000000000, 4227.69238281250000000000, 4156.92285156250000000000, 4152.30761718750000000000, 4122.56396484375000000000, 4157.94873046875000000000, 4153.33300781250000000000, 4196.92285156250000000000, 4177.94873046875000000000, 4166.15380859375000000000, 790.00000000000000000000, 2042.00000000000000000000, 2060.00000000000000000000, 0.00000000000000000000, 0.00000000000000000000, 2160.00000000000000000000, 975.00000000000000000000, 4.00000000000000000000, 4.00000000000000000000, 4.00000000000000000000, 4.00000000000000000000, 4.00000000000000000000, 4.00000000000000000000, 4.00000000000000000000, 2.00000000000000000000, 4.00000000000000000000, 4.00000000000000000000, 4.00000000000000000000, 4.00000000000000000000, 4.00000000000000000000, 4.00000000000000000000, 4.00000000000000000000, 4.00000000000000000000
97.00000000000000000000, 0.00000000000000000000, 4145.64111328125000000000, 4147.17919921875000000000, 4145.12792968750000000000, 4142.56396484375000000000, 4160.51269531250000000000, 4222.56396484375000000000, 4151.79492187500000000000, 4152.30761718750000000000, 4114.87158203125000000000, 4162.05126953125000000000, 4144.61523437500000000000, 4192.30761718750000000000, 4169.74365234375000000000, 4155.38427734375000000000, 695.00000000000000000000, 2041.00000000000000000000, 2059.00000000000000000000, 0.00000000000000000000, 0.00000000000000000000, 2160.00000000000000000000, 983.00000000000000000000, 4.00000000000000000000, 4.00000000000000000000, 4.00000000000000000000, 4.00000000000000000000, 4.00000000000000000000, 4.00000000000000000000, 4.00000000000000000000, 2.00000000000000000000, 4.00000000000000000000, 4.00000000000000000000, 4.00000000000000000000, 4.00000000000000000000, 4.00000000000000000000, 4.00000000000000000000, 4.00000000000000000000, 4.00000000000000000000
98.00000000000000000000, 0.00000000000000000000, 4144.61523437500000000000, 4142.05126953125000000000, 4162.05126953125000000000, 4135.38427734375000000000, 4161.02539062500000000000, 4214.87158203125000000000, 4151.28173828125000000000, 4152.82031250000000000000, 4112.82031250000000000000, 4158.46142578125000000000, 4138.46142578125000000000, 4186.66650390625000000000, 4161.02539062500000000000, 4148.71777343750000000000, 826.00000000000000000000, 2042.00000000000000000000, 2059.00000000000000000000, 0.00000000000000000000, 0.00000000000000000000, 2160.00000000000000000000, 991.00000000000000000000, 4.00000000000000000000, 4.00000000000000000000, 4.00000000000000000000, 4.00000000000000000000, 4.00000000000000000000, 4.00000000000000000000, 4.00000000000000000000, 2.00000000000000000000, 4.00000000000000000000, 4.00000000000000000000, 4.00000000000000000000, 4.00000000000000000000, 4.00000000000000000000, 4.00000000000000000000, 4.00000000000000000000, 4.00000000000000000000
99.00000000000000000000, 0.00000000000000000000, 4148.20507812500000000000, 4138.97412109375000000000, 4171.28173828125000000000, 4157.43603515625000000000, 4160.51269531250000000000, 4224.10253906250000000000, 4153.84619140625000000000, 4152.82031250000000000000, 4118.97412109375000000000, 4156.41015625000000000000, 4143.07666015625000000000, 4189.74365234375000000000, 4166.15380859375000000000, 4157.94873046875000000000, 768.00000000000000000000, 2042.00000000000000000000, 2058.00000000000000000000, 0.00000000000000000000, 0.00000000000000000000, 2160.00000000000000000000, 999.00000000000000000000, 4.00000000000000000000, 4.00000000000000000000, 4.00000000000000000000, 4.00000000000000000000, 4.00000000000000000000, 4.00000000000000000000, 4.00000000000000000000, 2.00000000000000000000, 4.00000000000000000000, 4.00000000000000000000, 4.00000000000000000000, 4.00000000000000000000, 4.00000000000000000000, 4.00000000000000000000, 4.00000000000000000000, 4.00000000000000000000
100.00000000000000000000, 0.00000000000000000000, 4153.33300781250000000000, 4147.17919921875000000000, 4155.38427734375000000000, 4162.56396484375000000000, 4167.17919921875000000000, 4232.82031250000000000000, 4154.87158203125000000000, 4155.38427734375000000000, 4122.56396484375000000000, 4162.05126953125000000000, 4150.76904296875000000000, 4200.51269531250000000000, 4176.92285156250000000000, 4166.66650390625000000000, 790.00000000000000000000, 2041.00000000000000000000, 2059.00000000000000000000, 0.00000000000000000000, 0.00000000000000000000, 2161.00000000000000000000, 7.00000000000000000000, 4.00000000000000000000, 4.00000000000000000000, 4.00000000000000000000, 4.00000000000000000000, 4.00000000000000000000, 4.00000000000000000000, 4.00000000000000000000, 2.00000000000000000000, 4.00000000000000000000, 4.00000000000000000000, 4.00000000000000000000, 4.00000000000000000000, 4.00000000000000000000, 4.00000000000000000000, 4.00000000000000000000, 4.00000000000000000000
101.00000000000000000000, 0.00000000000000000000, 4154.35888671875000000000, 4155.89746093750000000000, 4157.43603515625000000000, 4159.48730468750000000000, 4171.28173828125000000000, 4231.79492187500000000000, 4154.87158203125000000000, 4156.41015625000000000000, 4126.15380859375000000000, 4171.28173828125000000000, 4157.43603515625000000000, 4204.10253906250000000000, 4180.51269531250000000000, 4170.25634765625000000000, 695.00000000000000000000, 2041.00000000000000000000, 2059.00000000000000000000, 0.00000000000000000000, 0.00000000000000000000, 2161.00000000000000000000, 15.00000000000000000000, 4.00000000000000000000, 4.00000000000000000000, 4.00000000000000000000, 4.00000000000000000000, 4.00000000000000000000, 4.00000000000000000000, 4.00000000000000000000, 2.00000000000000000000, 4.00000000000000000000, 4.00000000000000000000, 4.00000000000000000000, 4.00000000000000000000, 4.00000000000000000000, 4.00000000000000000000, 4.00000000000000000000, 4.00000000000000000000
102.00000000000000000000, 0.00000000000000000000, 4149.23046875000000000000, 4154.87158203125000000000, 4176.41015625000000000000, 4156.92285156250000000000, 4166.15380859375000000000, 4230.76904296875000000000, 4156.92285156250000000000, 4156.41015625000000000000, 4126.66650390625000000000, 4172.30761718750000000000, 4154.87158203125000000000, 4193.84619140625000000000, 4173.84619140625000000000, 4169.23046875000000000000, 826.00000000000000000000, 2043.00000000000000000000, 2059.00000000000000000000, 0.00000000000000000000, 0.00000000000000000000, 2161.00000000000000000000, 23.00000000000000000000, 4.00000000000000000000, 4.00000000000000000000, 4.00000000000000000000, 4.00000000000000000000, 4.00000000000000000000, 4.00000000000000000000, 4.00000000000000000000, 2.00000000000000000000, 4.00000000000000000000, 4.00000000000000000000, 4.00000000000000000000, 4.00000000000000000000, 4.00000000000000000000, 4.00000000000000000000, 4.00000000000000000000, 4.00000000000000000000
103.00000000000000000000, 0.00000000000000000000, 4145.64111328125000000000, 4142.05126953125000000000, 4168.71777343750000000000, 4146.66650390625000000000, 4165.64111328125000000000, 4225.12792968750000000000, 4154.87158203125000000000, 4154.87158203125000000000, 4122.56396484375000000000, 4161.02539062500000000000, 4146.66650390625000000000, 4188.20507812500000000000, 4166.66650390625000000000, 4161.53857421875000000000, 768.00000000000000000000, 2041.00000000000000000000, 2059.00000000000000000000, 0.00000000000000000000, 0.00000000000000000000, 2161.00000000000000000000, 31.00000000000000000000, 4.00000000000000000000, 4.00000000000000000000, 4.00000000000000000000, 4.00000000000000000000, 4.00000000000000000000, 4.00000000000000000000, 4.00000000000000000000, 2.00000000000000000000, 4.00000000000000000000, 4.00000000000000000000, 4.00000000000000000000, 4.00000000000000000000, 4.00000000000000000000, 4.00000000000000000000, 4.00000000000000000000, 4.00000000000000000000
104.00000000000000000000, 0.00000000000000000000, 4149.23046875000000000000, 4141.02539062500000000000, 4150.76904296875000000000, 4153.33300781250000000000, 4167.69238281250000000000, 4218.97412109375000000000, 4151.79492187500000000000, 4154.35888671875000000000, 4121.02539062500000000000, 4156.92285156250000000000, 4151.28173828125000000000, 4196.41015625000000000000, 4173.33300781250000000000, 4157.43603515625000000000, 790.00000000000000000000, 2040.00000000000000000000, 2059.00000000000000000000, 0.00000000000000000000, 0.00000000000000000000, 2161.00000000000000000000, 39.00000000000000000000, 4.00000000000000000000, 4.00000000000000000000, 4.00000000000000000000, 4.00000000000000000000, 4.00000000000000000000, 4.00000000000000000000, 4.00000000000000000000, 2.00000000000000000000, 4.00000000000000000000, 4.00000000000000000000, 4.00000000000000000000, 4.00000000000000000000, 4.00000000000000000000, 4.00000000000000000000, 4.00000000000000000000, 4.00000000000000000000
105.00000000000000000000, 0.00000000000000000000, 4154.35888671875000000000, 4150.76904296875000000000, 4162.05126953125000000000, 4162.05126953125000000000, 4162.56396484375000000000, 4226.66650390625000000000, 4153.84619140625000000000, 4156.41015625000000000000, 4123.58984375000000000000, 4160.51269531250000000000, 4158.97412109375000000000, 4201.53857421875000000000, 4176.92285156250000000000, 4161.53857421875000000000, 695.00000000000000000000, 2041.00000000000000000000, 2060.00000000000000000000, 0.00000000000000000000, 0.00000000000000000000, 2161.00000000000000000000, 46.00000000000000000000, 4.00000000000000000000, 4.00000000000000000000, 4.00000000000000000000, 4.00000000000000000000, 4.00000000000000000000, 4.00000000000000000000, 4.00000000000000000000, 2.00000000000000000000, 4.00000000000000000000, 4.00000000000000000000, 4.00000000000000000000, 4.00000000000000000000, 4.00000000000000000000, 4.00000000000000000000, 4.00000000000000000000, 4.00000000000000000000
106.00000000000000000000, 0.00000000000000000000, 4148.71777343750000000000, 4146.66650390625000000000, 4174.87158203125000000000, 4148.20507812500000000000, 4162.56396484375000000000, 4233.33300781250000000000, 4153.84619140625000000000, 4156.92285156250000000000, 4123.58984375000000000000, 4163.07666015625000000000, 4157.94873046875000000000, 4197.94873046875000000000, 4177.43603515625000000000, 4164.61523437500000000000, 826.00000000000000000000, 2041.00000000000000000000, 2060.00000000000000000000, 0.00000000000000000000, 0.00000000000000000000, 2161.00000000000000000000, 54.00000000000000000000, 4.00000000000000000000, 4.00000000000000000000, 4.00000000000000000000, 4.00000000000000000000, 4.00000000000000000000, 4.00000000000000000000, 4.00000000000000000000, 2.00000000000000000000, 4.00000000000000000000, 4.00000000000000000000, 4.00000000000000000000, 4.00000000000000000000, 4.00000000000000000000, 4.00000000000000000000, 4.00000000000000000000, 4.00000000000000000000
107.00000000000000000000, 0.00000000000000000000, 4146.66650390625000000000, 4142.05126953125000000000, 4161.53857421875000000000, 4148.20507812500000000000, 4170.76904296875000000000, 4228.71777343750000000000, 4147.69238281250000000000, 4158.97412109375000000000, 4121.02539062500000000000, 4166.66650390625000000000, 4153.84619140625000000000, 4199.48730468750000000000, 4182.56396484375000000000, 4160.51269531250000000000, 768.00000000000000000000, 2041.00000000000000000000, 2061.00000000000000000000, 0.00000000000000000000, 0.00000000000000000000, 2161.00000000000000000000, 62.00000000000000000000, 4.00000000000000000000, 4.00000000000000000000, 4.00000000000000000000, 4.00000000000000000000, 4.00000000000000000000, 4.00000000000000000000, 4.00000000000000000000, 2.00000000000000000000, 4.00000000000000000000, 4.00000000000000000000, 4.00000000000000000000, 4.00000000000000000000, 4.00000000000000000000, 4.00000000000000000000, 4.00000000000000000000, 4.00000000000000000000
108.00000000000000000000, 0.00000000000000000000, 4151.28173828125000000000, 4149.23046875000000000000, 4153.84619140625000000000, 4170.25634765625000000000, 4175.38427734375000000000, 4227.17919921875000000000, 4144.61523437500000000000, 4159.48730468750000000000, 4123.07666015625000000000, 4172.30761718750000000000, 4153.33300781250000000000, 4200.51269531250000000000, 4181.02539062500000000000, 4159.48730468750000000000, 790.00000000000000000000, 2039.00000000000000000000, 2060.00000000000000000000, 0.00000000000000000000, 0.00000000000000000000, 2161.00000000000000000000, 70.00000000000000000000, 4.00000000000000000000, 4.00000000000000000000, 4.00000000000000000000, 4.00000000000000000000, 4.00000000000000000000, 4.00000000000000000000, 4.00000000000000000000, 2.00000000000000000000, 4.00000000000000000000, 4.00000000000000000000, 4.00000000000000000000, 4.00000000000000000000, 4.00000000000000000000, 4.00000000000000000000, 4.00000000000000000000, 4.00000000000000000000
109.00000000000000000000, 0.00000000000000000000, 4154.87158203125000000000, 4152.30761718750000000000, 4174.35888671875000000000, 4174.35888671875000000000, 4172.30761718750000000000, 4232.82031250000000000000, 4153.33300781250000000000, 4160.00000000000000000000, 4128.20507812500000000000, 4173.84619140625000000000, 4157.43603515625000000000, 4199.48730468750000000000, 4176.92285156250000000000, 4166.15380859375000000000, 695.00000000000000000000, 2041.00000000000000000000, 2060.00000000000000000000, 0.00000000000000000000, 0.00000000000000000000, 2161.00000000000000000000, 78.00000000000000000000, 4.00000000000000000000, 4.00000000000000000000, 4.00000000000000000000, 4.00000000000000000000, 4.00000000000000000000, 4.00000000000000000000, 4.00000000000000000000, 2.00000000000000000000, 4.00000000000000000000, 4.00000000000000000000, 4.00000000000000000000, 4.00000000000000000000, 4.00000000000000000000, 4.00000000000000000000, 4.00000000000000000000, 4.00000000000000000000
110.00000000000000000000, 0.00000000000000000000, 4152.30761718750000000000, 4149.74365234375000000000, 4170.25634765625000000000, 4165.12792968750000000000, 4177.43603515625000000000, 4237.43603515625000000000, 4160.51269531250000000000, 4158.97412109375000000000, 4128.71777343750000000000, 4172.82031250000000000000, 4162.05126953125000000000, 4196.92285156250000000000, 4179.48730468750000000000, 4166.15380859375000000000, 826.00000000000000000000, 2040.00000000000000000000, 2056.00000000000000000000, 0.00000000000000000000, 0.00000000000000000000, 2161.00000000000000000000, 86.00000000000000000000, 4.00000000000000000000, 4.00000000000000000000, 4.00000000000000000000, 4.00000000000000000000, 4.00000000000000000000, 4.00000000000000000000, 4.00000000000000000000, 2.00000000000000000000, 4.00000000000000000000, 4.00000000000000000000, 4.00000000000000000000, 4.00000000000000000000, 4.00000000000000000000, 4.00000000000000000000, 4.00000000000000000000, 4.00000000000000000000
111.00000000000000000000, 0.00000000000000000000, 4157.43603515625000000000, 4159.48730468750000000000, 4154.87158203125000000000, 4162.05126953125000000000, 4182.56396484375000000000, 4240.00000000000000000000, 4156.41015625000000000000, 4160.00000000000000000000, 4127.17919921875000000000, 4169.23046875000000000000, 4159.48730468750000000000, 4198.97412109375000000000, 4182.56396484375000000000, 4157.94873046875000000000, 768.00000000000000000000, 2039.00000000000000000000, 2057.00000000000000000000, 0.00000000000000000000, 0.00000000000000000000, 2161.00000000000000000000, 94.00000000000000000000, 4.00000000000000000000, 4.00000000000000000000, 4.00000000000000000000, 4.00000000000000000000, 4.00000000000000000000, 4.00000000000000000000, 4.00000000000000000000, 2.00000000000000000000, 4.00000000000000000000, 4.00000000000000000000, 4.00000000000000000000, 4.00000000000000000000, 4.00000000000000000000, 4.00000000000000000000, 4.00000000000000000000, 4.00000000000000000000
112.00000000000000000000, 0.00000000000000000000, 4156.41015625000000000000, 4159.48730468750000000000, 4162.56396484375000000000, 4159.48730468750000000000, 4178.97412109375000000000, 4233.84619140625000000000, 4151.28173828125000000000, 4156.92285156250000000000, 4129.74365234375000000000, 4168.20507812500000000000, 4157.43603515625000000000, 4201.02539062500000000000, 4181.02539062500000000000, 4158.97412109375000000000, 790.00000000000000000000, 2041.00000000000000000000, 2058.00000000000000000000, 0.00000000000000000000, 0.00000000000000000000, 2161.00000000000000000000, 101.00000000000000000000, 4.00000000000000000000, 4.00000000000000000000, 4.00000000000000000000, 4.00000000000000000000, 4.00000000000000000000, 4.00000000000000000000, 4.00000000000000000000, 2.00000000000000000000, 4.00000000000000000000, 4.00000000000000000000, 4.00000000000000000000, 4.00000000000000000000, 4.00000000000000000000, 4.00000000000000000000, 4.00000000000000000000, 4.00000000000000000000
113.00000000000000000000, 0.00000000000000000000, 4151.28173828125000000000, 4141.02539062500000000000, 4174.87158203125000000000, 4160.51269531250000000000, 4169.23046875000000000000, 4228.71777343750000000000, 4154.35888671875000000000, 4155.89746093750000000000, 4127.69238281250000000000, 4166.66650390625000000000, 4157.94873046875000000000, 4197.94873046875000000000, 4173.84619140625000000000, 4163.58984375000000000000, 695.00000000000000000000, 2042.00000000000000000000, 2059.00000000000000000000, 0.00000000000000000000, 0.00000000000000000000, 2161.00000000000000000000, 109.00000000000000000000, 4.00000000000000000000, 4.00000000000000000000, 4.00000000000000000000, 4.00000000000000000000, 4.00000000000000000000, 4.00000000000000000000, 4.00000000000000000000, 2.00000000000000000000, 4.00000000000000000000, 4.00000000000000000000, 4.00000000000000000000, 4.00000000000000000000, 4.00000000000000000000, 4.00000000000000000000, 4.00000000000000000000, 4.00000000000000000000
114.00000000000000000000, 0.00000000000000000000, 4151.28173828125000000000, 4134.87158203125000000000, 4161.02539062500000000000, 4164.10253906250000000000, 4167.17919921875000000000, 4228.71777343750000000000, 4155.38427734375000000000, 4159.48730468750000000000, 4122.05126953125000000000, 4166.15380859375000000000, 4151.28173828125000000000, 4190.76904296875000000000, 4170.25634765625000000000, 4155.38427734375000000000, 826.00000000000000000000, 2041.00000000000000000000, 2058.00000000000000000000, 0.00000000000000000000, 0.00000000000000000000, 2161.00000000000000000000, 117.00000000000000000000, 4.00000000000000000000, 4.00000000000000000000, 4.00000000000000000000, 4.00000000000000000000, 4.00000000000000000000, 4.00000000000000000000, 4.00000000000000000000, 2.00000000000000000000, 4.00000000000000000000, 4.00000000000000000000, 4.00000000000000000000, 4.00000000000000000000, 4.00000000000000000000, 4.00000000000000000000, 4.00000000000000000000, 4.00000000000000000000
115.00000000000000000000, 0.00000000000000000000, 4153.33300781250000000000, 4151.28173828125000000000, 4157.94873046875000000000, 4167.69238281250000000000, 4174.87158203125000000000, 4231.28173828125000000000, 4153.33300781250000000000, 4161.02539062500000000000, 4125.64111328125000000000, 4168.71777343750000000000, 4146.15380859375000000000, 4195.38427734375000000000, 4170.76904296875000000000, 4151.79492187500000000000, 768.00000000000000000000, 2042.00000000000000000000, 2058.00000000000000000000, 0.00000000000000000000, 0.00000000000000000000, 2161.00000000000000000000, 125.00000000000000000000, 4.00000000000000000000, 4.00000000000000000000, 4.00000000000000000000, 4.00000000000000000000, 4.00000000000000000000, 4.00000000000000000000, 4.00000000000000000000, 2.00000000000000000000, 4.00000000000000000000, 4.00000000000000000000, 4.00000000000000000000, 4.00000000000000000000, 4.00000000000000000000, 4.00000000000000000000, 4.00000000000000000000, 4.00000000000000000000
116.00000000000000000000, 0.00000000000000000000, 4150.76904296875000000000, 4150.25634765625000000000, 4172.82031250000000000000, 4165.12792968750000000000, 4183.07666015625000000000, 4235.89746093750000000000, 4154.87158203125000000000, 4160.00000000000000000000, 4131.79492187500000000000, 4171.28173828125000000000, 4153.33300781250000000000, 4201.53857421875000000000, 4169.23046875000000000000, 4155.38427734375000000000, 790.00000000000000000000, 2042.00000000000000000000, 2057.00000000000000000000, 0.00000000000000000000, 0.00000000000000000000, 2161.00000000000000000000, 133.00000000000000000000, 4.00000000000000000000, 4.00000000000000000000, 4.00000000000000000000, 4.00000000000000000000, 4.00000000000000000000, 4.00000000000000000000, 4.00000000000000000000, 2.00000000000000000000, 4.00000000000000000000, 4.00000000000000000000, 4.00000000000000000000, 4.00000000000000000000, 4.00000000000000000000, 4.00000000000000000000, 4.00000000000000000000, 4.00000000000000000000
117.00000000000000000000, 0.00000000000000000000, 4149.23046875000000000000, 4137.94873046875000000000, 4172.30761718750000000000, 4145.12792968750000000000, 4176.41015625000000000000, 4237.94873046875000000000, 4153.33300781250000000000, 4162.56396484375000000000, 4129.74365234375000000000, 4162.05126953125000000000, 4154.35888671875000000000, 4196.92285156250000000000, 4165.12792968750000000000, 4151.28173828125000000000, 695.00000000000000000000, 2042.00000000000000000000, 2059.00000000000000000000, 0.00000000000000000000, 0.00000000000000000000, 2161.00000000000000000000, 141.00000000000000000000, 4.00000000000000000000, 4.00000000000000000000, 4.00000000000000000000, 4.00000000000000000000, 4.00000000000000000000, 4.00000000000000000000, 4.00000000000000000000, 2.00000000000000000000, 4.00000000000000000000, 4.00000000000000000000, 4.00000000000000000000, 4.00000000000000000000, 4.00000000000000000000, 4.00000000000000000000, 4.00000000000000000000, 4.00000000000000000000
118.00000000000000000000, 0.00000000000000000000, 4148.20507812500000000000, 4143.58984375000000000000, 4151.79492187500000000000, 4144.61523437500000000000, 4168.71777343750000000000, 4231.79492187500000000000, 4149.23046875000000000000, 4160.51269531250000000000, 4127.17919921875000000000, 4156.92285156250000000000, 4150.76904296875000000000, 4196.41015625000000000000, 4169.23046875000000000000, 4147.17919921875000000000, 826.00000000000000000000, 2042.00000000000000000000, 2057.00000000000000000000, 0.00000000000000000000, 0.00000000000000000000, 2161.00000000000000000000, 149.00000000000000000000, 4.00000000000000000000, 4.00000000000000000000, 4.00000000000000000000, 4.00000000000000000000, 4.00000000000000000000, 4.00000000000000000000, 4.00000000000000000000, 2.00000000000000000000, 4.00000000000000000000, 4.00000000000000000000, 4.00000000000000000000, 4.00000000000000000000, 4.00000000000000000000, 4.00000000000000000000, 4.00000000000000000000, 4.00000000000000000000
119.00000000000000000000, 0.00000000000000000000, 4143.58984375000000000000, 4151.79492187500000000000, 4151.79492187500000000000, 4165.64111328125000000000, 4171.79492187500000000000, 4226.66650390625000000000, 4146.66650390625000000000, 4157.43603515625000000000, 4127.69238281250000000000, 4163.58984375000000000000, 4150.25634765625000000000, 4198.46142578125000000000, 4165.64111328125000000000, 4148.71777343750000000000, 768.00000000000000000000, 2042.00000000000000000000, 2056.00000000000000000000, 0.00000000000000000000, 0.00000000000000000000, 2161.00000000000000000000, 157.00000000000000000000, 4.00000000000000000000, 4.00000000000000000000, 4.00000000000000000000, 4.00000000000000000000, 4.00000000000000000000, 4.00000000000000000000, 4.00000000000000000000, 2.00000000000000000000, 4.00000000000000000000, 4.00000000000000000000, 4.00000000000000000000, 4.00000000000000000000, 4.00000000000000000000, 4.00000000000000000000, 4.00000000000000000000, 4.00000000000000000000
120.00000000000000000000, 0.00000000000000000000, 4142.56396484375000000000, 4142.56396484375000000000, 4173.84619140625000000000, 4159.48730468750000000000, 4167.69238281250000000000, 4224.61523437500000000000, 4145.12792968750000000000, 4157.43603515625000000000, 4127.17919921875000000000, 4161.53857421875000000000, 4148.20507812500000000000, 4195.38427734375000000000, 4156.92285156250000000000, 4149.23046875000000000000, 790.00000000000000000000, 2042.00000000000000000000, 2057.00000000000000000000, 0.00000000000000000000, 0.00000000000000000000, 2161.00000000000000000000, 164.00000000000000000000, 4.00000000000000000000, 4.00000000000000000000, 4.00000000000000000000, 4.00000000000000000000, 4.00000000000000000000, 4.00000000000000000000, 4.00000000000000000000, 2.00000000000000000000, 4.00000000000000000000, 4.00000000000000000000, 4.00000000000000000000, 4.00000000000000000000, 4.00000000000000000000, 4.00000000000000000000, 4.00000000000000000000, 4.00000000000000000000
121.00000000000000000000, 0.00000000000000000000, 4146.15380859375000000000, 4137.43603515625000000000, 4172.82031250000000000000, 4147.17919921875000000000, 4162.56396484375000000000, 4225.64111328125000000000, 4143.58984375000000000000, 4158.46142578125000000000, 4126.66650390625000000000, 4154.35888671875000000000, 4146.66650390625000000000, 4194.87158203125000000000, 4165.12792968750000000000, 4151.28173828125000000000, 695.00000000000000000000, 2042.00000000000000000000, 2058.00000000000000000000, 0.00000000000000000000, 0.00000000000000000000, 2161.00000000000000000000, 172.00000000000000000000, 4.00000000000000000000, 4.00000000000000000000, 4.00000000000000000000, 4.00000000000000000000, 4.00000000000000000000, 4.00000000000000000000, 4.00000000000000000000, 2.00000000000000000000, 4.00000000000000000000, 4.00000000000000000000, 4.00000000000000000000, 4.00000000000000000000, 4.00000000000000000000, 4.00000000000000000000, 4.00000000000000000000, 4.00000000000000000000
122.00000000000000000000, 0.00000000000000000000, 4148.71777343750000000000, 4144.61523437500000000000, 4158.97412109375000000000, 4163.07666015625000000000, 4165.12792968750000000000, 4225.64111328125000000000, 4144.61523437500000000000, 4158.46142578125000000000, 4127.69238281250000000000, 4152.30761718750000000000, 4148.20507812500000000000, 4199.48730468750000000000, 4172.30761718750000000000, 4155.38427734375000000000, 826.00000000000000000000, 2043.00000000000000000000, 2057.00000000000000000000, 0.00000000000000000000, 0.00000000000000000000, 2161.00000000000000000000, 179.00000000000000000000, 4.00000000000000000000, 4.00000000000000000000, 4.00000000000000000000, 4.00000000000000000000, 4.00000000000000000000, 4.00000000000000000000, 4.00000000000000000000, 2.00000000000000000000, 4.00000000000000000000, 4.00000000000000000000, 4.00000000000000000000, 4.00000000000000000000, 4.00000000000000000000, 4.00000000000000000000, 4.00000000000000000000, 4.00000000000000000000
123.00000000000000000000, 0.00000000000000000000, 4149.23046875000000000000, 4151.79492187500000000000, 4172.30761718750000000000, 4159.48730468750000000000, 4162.56396484375000000000, 4223.07666015625000000000, 4146.15380859375000000000, 4157.43603515625000000000, 4126.66650390625000000000, 4150.76904296875000000000, 4148.71777343750000000000, 4198.97412109375000000000, 4167.17919921875000000000, 4154.87158203125000000000, 768.00000000000000000000, 2043.00000000000000000000, 2058.00000000000000000000, 0.00000000000000000000, 0.00000000000000000000, 2161.00000000000000000000, 188.00000000000000000000, 4.00000000000000000000, 4.00000000000000000000, 4.00000000000000000000, 4.00000000000000000000, 4.00000000000000000000, 4.00000000000000000000, 4.00000000000000000000, 2.00000000000000000000, 4.00000000000000000000, 4.00000000000000000000, 4.00000000000000000000, 4.00000000000000000000, 4.00000000000000000000, 4.00000000000000000000, 4.00000000000000000000, 4.00000000000000000000
124.00000000000000000000, 0.00000000000000000000, 4155.38427734375000000000, 4148.20507812500000000000, 4188.20507812500000000000, 4145.12792968750000000000, 4158.46142578125000000000, 4222.56396484375000000000, 4149.74365234375000000000, 4155.89746093750000000000, 4125.12792968750000000000, 4147.69238281250000000000, 4149.74365234375000000000, 4198.97412109375000000000, 4165.64111328125000000000, 4155.38427734375000000000, 790.00000000000000000000, 2042.00000000000000000000, 2059.00000000000000000000, 0.00000000000000000000, 0.00000000000000000000, 2161.00000000000000000000, 196.00000000000000000000, 4.00000000000000000000, 4.00000000000000000000, 4.00000000000000000000, 4.00000000000000000000, 4.00000000000000000000, 4.00000000000000000000, 4.00000000000000000000, 2.00000000000000000000, 4.00000000000000000000, 4.00000000000000000000, 4.00000000000000000000, 4.00000000000000000000, 4.00000000000000000000, 4.00000000000000000000, 4.00000000000000000000, 4.00000000000000000000
125.00000000000000000000, 0.00000000000000000000, 4156.92285156250000000000, 4144.10253906250000000000, 4170.25634765625000000000, 4168.71777343750000000000, 4166.66650390625000000000, 4225.12792968750000000000, 4152.30761718750000000000, 4155.38427734375000000000, 4123.58984375000000000000, 4151.79492187500000000000, 4148.71777343750000000000, 4201.02539062500000000000, 4168.71777343750000000000, 4154.35888671875000000000, 695.00000000000000000000, 2042.00000000000000000000, 2059.00000000000000000000, 0.00000000000000000000, 0.00000000000000000000, 2161.00000000000000000000, 204.00000000000000000000, 4.00000000000000000000, 4.00000000000000000000, 4.00000000000000000000, 4.00000000000000000000, 4.00000000000000000000, 4.00000000000000000000, 4.00000000000000000000, 2.00000000000000000000, 4.00000000000000000000, 4.00000000000000000000, 4.00000000000000000000, 4.00000000000000000000, 4.00000000000000000000, 4.00000000000000000000, 4.00000000000000000000, 4.00000000000000000000
126.00000000000000000000, 0.00000000000000000000, 4146.66650390625000000000, 4150.76904296875000000000, 4157.94873046875000000000, 4168.20507812500000000000, 4168.71777343750000000000, 4221.02539062500000000000, 4148.71777343750000000000, 4153.84619140625000000000, 4117.43603515625000000000, 4145.12792968750000000000, 4139.48730468750000000000, 4194.87158203125000000000, 4156.92285156250000000000, 4146.66650390625000000000, 826.00000000000000000000, 2041.00000000000000000000, 2058.00000000000000000000, 0.00000000000000000000, 0.00000000000000000000, 2161.00000000000000000000, 212.00000000000000000000, 4.00000000000000000000, 4.00000000000000000000, 4.00000000000000000000, 4.00000000000000000000, 4.00000000000000000000, 4.00000000000000000000, 4.00000000000000000000, 2.00000000000000000000, 4.00000000000000000000, 4.00000000000000000000, 4.00000000000000000000, 4.00000000000000000000, 4.00000000000000000000, 4.00000000000000000000, 4.00000000000000000000, 4.00000000000000000000
127.00000000000000000000, 0.00000000000000000000, 4140.51269531250000000000, 4145.64111328125000000000, 4170.76904296875000000000, 4141.02539062500000000000, 4161.02539062500000000000, 4215.38427734375000000000, 4146.66650390625000000000, 4148.20507812500000000000, 4113.33300781250000000000, 4135.89746093750000000000, 4136.41015625000000000000, 4186.15380859375000000000, 4153.84619140625000000000, 4145.12792968750000000000, 768.00000000000000000000, 2040.00000000000000000000, 2058.00000000000000000000, 0.00000000000000000000, 0.00000000000000000000, 2161.00000000000000000000, 220.00000000000000000000, 4.00000000000000000000, 4.00000000000000000000, 4.00000000000000000000, 4.00000000000000000000, 4.00000000000000000000, 4.00000000000000000000, 4.00000000000000000000, 2.00000000000000000000, 4.00000000000000000000, 4.00000000000000000000, 4.00000000000000000000, 4.00000000000000000000, 4.00000000000000000000, 4.00000000000000000000, 4.00000000000000000000, 4.00000000000000000000
128.00000000000000000000, 0.00000000000000000000, 4156.41015625000000000000, 4137.43603515625000000000, 4176.92285156250000000000, 4157.43603515625000000000, 4163.07666015625000000000, 4223.07666015625000000000, 4151.28173828125000000000, 4150.25634765625000000000, 4118.97412109375000000000, 4145.12792968750000000000, 4146.66650390625000000000, 4191.28173828125000000000, 4170.76904296875000000000, 4153.84619140625000000000, 790.00000000000000000000, 2041.00000000000000000000, 2059.00000000000000000000, 0.00000000000000000000, 0.00000000000000000000, 2161.00000000000000000000, 228.00000000000000000000, 4.00000000000000000000, 4.00000000000000000000, 4.00000000000000000000, 4.00000000000000000000, 4.00000000000000000000, 4.00000000000000000000, 4.00000000000000000000, 2.00000000000000000000, 4.00000000000000000000, 4.00000000000000000000, 4.00000000000000000000, 4.00000000000000000000, 4.00000000000000000000, 4.00000000000000000000, 4.00000000000000000000, 4.00000000000000000000
0.00000000000000000000, 0.00000000000000000000, 4165.64111328125000000000, 4153.84619140625000000000, 4168.20507812500000000000, 4176.92285156250000000000, 4173.33300781250000000000, 4231.28173828125000000000, 4162.05126953125000000000, 4160.00000000000000000000, 4131.79492187500000000000, 4165.12792968750000000000, 4162.56396484375000000000, 4202.56396484375000000000, 4185.12792968750000000000, 4164.10253906250000000000, 608.00000000000000000000, 2043.00000000000000000000, 2058.00000000000000000000, 0.00000000000000000000, 0.00000000000000000000, 2161.00000000000000000000, 235.00000000000000000000, 4.00000000000000000000, 4.00000000000000000000, 4.00000000000000000000, 4.00000000000000000000, 4.00000000000000000000, 4.00000000000000000000, 4.00000000000000000000, 2.00000000000000000000, 4.00000000000000000000, 4.00000000000000000000, 4.00000000000000000000, 4.00000000000000000000, 4.00000000000000000000, 4.00000000000000000000, 4.00000000000000000000, 4.00000000000000000000
1.00000000000000000000, 0.00000000000000000000, 4158.97412109375000000000, 4170.76904296875000000000, 4182.05126953125000000000, 4154.87158203125000000000, 4176.92285156250000000000, 4233.84619140625000000000, 4172.30761718750000000000, 4165.12792968750000000000, 4139.48730468750000000000, 4178.46142578125000000000, 4170.25634765625000000000, 4206.15380859375000000000, 4187.17919921875000000000, 4172.30761718750000000000, 854.00000000000000000000, 2042.00000000000000000000, 2056.00000000000000000000, 0.00000000000000000000, 0.00000000000000000000, 2161.00000000000000000000, 243.00000000000000000000, 4.00000000000000000000, 4.00000000000000000000, 4.00000000000000000000, 4.00000000000000000000, 4.00000000000000000000, 4.00000000000000000000, 4.00000000000000000000, 2.00000000000000000000, 4.00000000000000000000, 4.00000000000000000000, 4.00000000000000000000, 4.00000000000000000000, 4.00000000000000000000, 4.00000000000000000000, 4.00000000000000000000, 4.00000000000000000000
2.00000000000000000000, 0.00000000000000000000, 4153.33300781250000000000, 4155.89746093750000000000, 4190.76904296875000000000, 4152.82031250000000000000, 4172.30761718750000000000, 4229.23046875000000000000, 4168.71777343750000000000, 4161.02539062500000000000, 4137.94873046875000000000, 4178.97412109375000000000, 4167.69238281250000000000, 4200.51269531250000000000, 4187.69238281250000000000, 4174.35888671875000000000, 681.00000000000000000000, 2040.00000000000000000000, 2057.00000000000000000000, 0.00000000000000000000, 0.00000000000000000000, 2161.00000000000000000000, 251.00000000000000000000, 4.00000000000000000000, 4.00000000000000000000, 4.00000000000000000000, 4.00000000000000000000, 4.00000000000000000000, 4.00000000000000000000, 4.00000000000000000000, 2.00000000000000000000, 4.00000000000000000000, 4.00000000000000000000, 4.00000000000000000000, 4.00000000000000000000, 4.00000000000000000000, 4.00000000000000000000, 4.00000000000000000000, 4.00000000000000000000
3.00000000000000000000, 0.00000000000000000000, 4154.87158203125000000000, 4143.58984375000000000000, 4177.94873046875000000000, 4162.05126953125000000000, 4162.56396484375000000000, 4221.53857421875000000000, 4156.92285156250000000000, 4158.97412109375000000000, 4131.79492187500000000000, 4165.64111328125000000000, 4158.46142578125000000000, 4198.46142578125000000000, 4184.61523437500000000000, 4165.64111328125000000000, 492.00000000000000000000, 2040.00000000000000000000, 2057.00000000000000000000, 0.00000000000000000000, 0.00000000000000000000, 2161.00000000000000000000, 259.00000000000000000000, 4.00000000000000000000, 4.00000000000000000000, 4.00000000000000000000, 4.00000000000000000000, 4.00000000000000000000, 4.00000000000000000000, 4.00000000000000000000, 2.00000000000000000000, 4.00000000000000000000, 4.00000000000000000000, 4.00000000000000000000, 4.00000000000000000000, 4.00000000000000000000, 4.00000000000000000000, 4.00000000000000000000, 4.00000000000000000000
4.00000000000000000000, 0.00000000000000000000, 4152.30761718750000000000, 4149.74365234375000000000, 4171.28173828125000000000, 4156.92285156250000000000, 4160.51269531250000000000, 4215.89746093750000000000, 4156.41015625000000000000, 4158.46142578125000000000, 4131.28173828125000000000, 4162.05126953125000000000, 4155.38427734375000000000, 4198.97412109375000000000, 4182.56396484375000000000, 4162.05126953125000000000, 853.00000000000000000000, 2041.00000000000000000000, 2055.00000000000000000000, 0.00000000000000000000, 0.00000000000000000000, 2161.00000000000000000000, 267.00000000000000000000, 4.00000000000000000000, 4.00000000000000000000, 4.00000000000000000000, 4.00000000000000000000, 4.00000000000000000000, 4.00000000000000000000, 4.00000000000000000000, 2.00000000000000000000, 4.00000000000000000000, 4.00000000000000000000, 4.00000000000000000000, 4.00000000000000000000, 4.00000000000000000000, 4.00000000000000000000, 4.00000000000000000000, 4.00000000000000000000
5.00000000000000000000, 0.00000000000000000000, 4156.41015625000000000000, 4153.33300781250000000000, 4189.74365234375000000000, 4165.64111328125000000000, 4168.20507812500000000000, 4220.51269531250000000000, 4165.64111328125000000000, 4157.94873046875000000000, 4134.35888671875000000000, 4167.69238281250000000000, 4161.02539062500000000000, 4200.51269531250000000000, 4184.61523437500000000000, 4171.79492187500000000000, 542.00000000000000000000, 2041.00000000000000000000, 2057.00000000000000000000, 0.00000000000000000000, 0.00000000000000000000, 2161.00000000000000000000, 275.00000000000000000000, 4.00000000000000000000, 4.00000000000000000000, 4.00000000000000000000, 4.00000000000000000000, 4.00000000000000000000, 4.00000000000000000000, 4.00000000000000000000, 2.00000000000000000000, 4.00000000000000000000, 4.00000000000000000000, 4.00000000000000000000, 4.00000000000000000000, 4.00000000000000000000, 4.00000000000000000000, 4.00000000000000000000, 4.00000000000000000000
6.00000000000000000000, 0.00000000000000000000, 4162.56396484375000000000, 4147.69238281250000000000, 4191.28173828125000000000, 4173.33300781250000000000, 4173.84619140625000000000, 4228.71777343750000000000, 4167.17919921875000000000, 4159.48730468750000000000, 4132.30761718750000000000, 4162.05126953125000000000, 4162.05126953125000000000, 4200.51269531250000000000, 4184.10253906250000000000, 4177.43603515625000000000, 719.00000000000000000000, 2041.00000000000000000000, 2058.00000000000000000000, 0.00000000000000000000, 0.00000000000000000000, 2161.00000000000000000000, 283.00000000000000000000, 4.00000000000000000000, 4.00000000000000000000, 4.00000000000000000000, 4.00000000000000000000, 4.00000000000000000000, 4.00000000000000000000, 4.00000000000000000000, 2.00000000000000000000, 4.00000000000000000000, 4.00000000000000000000, 4.00000000000000000000, 4.00000000000000000000, 4.00000000000000000000, 4.00000000000000000000, 4.00000000000000000000, 4.00000000000000000000
7.00000000000000000000, 0.00000000000000000000, 4157.94873046875000000000, 4153.33300781250000000000, 4175.38427734375000000000, 4155.89746093750000000000, 4170.25634765625000000000, 4228.20507812500000000000, 4164.10253906250000000000, 4160.00000000000000000000, 4130.25634765625000000000, 4158.97412109375000000000, 4156.92285156250000000000, 4196.41015625000000000000, 4181.53857421875000000000, 4166.66650390625000000000, 240.00000000000000000000, 2041.00000000000000000000, 2057.00000000000000000000, 0.00000000000000000000, 0.00000000000000000000, 2161.00000000000000000000, 291.00000000000000000000, 4.00000000000000000000, 4.00000000000000000000, 4.00000000000000000000, 4.00000000000000000000, 4.00000000000000000000, 4.00000000000000000000, 4.00000000000000000000, 2.00000000000000000000, 4.00000000000000000000, 4.00000000000000000000, 4.00000000000000000000, 4.00000000000000000000, 4.00000000000000000000, 4.00000000000000000000, 4.00000000000000000000, 4.00000000000000000000
8.00000000000000000000, 0.00000000000000000000, 4149.74365234375000000000, 4161.53857421875000000000, 4178.46142578125000000000, 4145.64111328125000000000, 4169.74365234375000000000, 4222.56396484375000000000, 4163.58984375000000000000, 4155.89746093750000000000, 4133.84619140625000000000, 4169.74365234375000000000, 4157.43603515625000000000, 4190.76904296875000000000, 4183.58984375000000000000, 4158.97412109375000000000, 476.00000000000000000000, 2043.00000000000000000000, 2058.00000000000000000000, 0.00000000000000000000, 0.00000000000000000000, 2161.00000000000000000000, 299.00000000000000000000, 4.00000000000000000000, 4.00000000000000000000, 4.00000000000000000000, 4.00000000000000000000, 4.00000000000000000000, 4.00000000000000000000, 4.00000000000000000000, 2.00000000000000000000, 4.00000000000000000000, 4.00000000000000000000, 4.00000000000000000000, 4.00000000000000000000, 4.00000000000000000000, 4.00000000000000000000, 4.00000000000000000000, 4.00000000000000000000
9.00000000000000000000, 0.00000000000000000000, 4147.69238281250000000000, 4154.87158203125000000000, 4190.25634765625000000000, 4157.94873046875000000000, 4170.76904296875000000000, 4224.10253906250000000000, 4162.56396484375000000000, 4152.82031250000000000000, 4133.84619140625000000000, 4165.12792968750000000000, 4158.97412109375000000000, 4186.15380859375000000000, 4184.10253906250000000000, 4159.48730468750000000000, 850.00000000000000000000, 2042.00000000000000000000, 2059.00000000000000000000, 0.00000000000000000000, 0.00000000000000000000, 2161.00000000000000000000, 306.00000000000000000000, 4.00000000000000000000, 4.00000000000000000000, 4.00000000000000000000, 4.00000000000000000000, 4.00000000000000000000, 4.00000000000000000000, 4.00000000000000000000, 2.00000000000000000000, 4.00000000000000000000, 4.00000000000000000000, 4.00000000000000000000, 4.00000000000000000000, 4.00000000000000000000, 4.00000000000000000000, 4.00000000000000000000, 4.00000000000000000000
10.00000000000000000000, 0.00000000000000000000, 4151.28173828125000000000, 4149.74365234375000000000, 4179.48730468750000000000, 4167.69238281250000000000, 4169.74365234375000000000, 4227.17919921875000000000, 4167.17919921875000000000, 4157.94873046875000000000, 4134.87158203125000000000, 4155.89746093750000000000, 4157.43603515625000000000, 4184.61523437500000000000, 4183.58984375000000000000, 4160.00000000000000000000, 820.00000000000000000000, 2042.00000000000000000000, 2058.00000000000000000000, 0.00000000000000000000, 0.00000000000000000000, 2161.00000000000000000000, 313.00000000000000000000, 4.00000000000000000000, 4.00000000000000000000, 4.00000000000000000000, 4.00000000000000000000, 4.00000000000000000000, 4.00000000000000000000, 4.00000000000000000000, 2.00000000000000000000, 4.00000000000000000000, 4.00000000000000000000, 4.00000000000000000000, 4.00000000000000000000, 4.00000000000000000000, 4.00000000000000000000, 4.00000000000000000000, 4.00000000000000000000
11.00000000000000000000, 0.00000000000000000000, 4155.38427734375000000000, 4158.97412109375000000000, 4169.74365234375000000000, 4167.17919921875000000000, 4170.25634765625000000000, 4225.12792968750000000000, 4172.82031250000000000000, 4164.61523437500000000000, 4140.00000000000000000000, 4166.66650390625000000000, 4158.46142578125000000000, 4186.66650390625000000000, 4187.17919921875000000000, 4161.02539062500000000000, 768.00000000000000000000, 2041.00000000000000000000, 2057.00000000000000000000, 0.00000000000000000000, 0.00000000000000000000, 2161.00000000000000000000, 321.00000000000000000000, 4.00000000000000000000, 4.00000000000000000000, 4.00000000000000000000, 4.00000000000000000000, 4.00000000000000000000, 4.00000000000000000000, 4.00000000000000000000, 2.00000000000000000000, 4.00000000000000000000, 4.00000000000000000000, 4.00000000000000000000, 4.00000000000000000000, 4.00000000000000000000, 4.00000000000000000000, 4.00000000000000000000, 4.00000000000000000000
12.00000000000000000000, 0.00000000000000000000, 4154.35888671875000000000, 4160.00000000000000000000, 4181.02539062500000000000, 4157.43603515625000000000, 4168.71777343750000000000, 4220.00000000000000000000, 4167.69238281250000000000, 4159.48730468750000000000, 4137.94873046875000000000, 4168.71777343750000000000, 4155.38427734375000000000, 4187.69238281250000000000, 4183.58984375000000000000, 4161.53857421875000000000, 789.00000000000000000000, 2042.00000000000000000000, 2059.00000000000000000000, 0.00000000000000000000, 0.00000000000000000000, 2161.00000000000000000000, 330.00000000000000000000, 4.00000000000000000000, 4.00000000000000000000, 4.00000000000000000000, 4.00000000000000000000, 4.00000000000000000000, 4.00000000000000000000, 4.00000000000000000000, 2.00000000000000000000, 4.00000000000000000000, 4.00000000000000000000, 4.00000000000000000000, 4.00000000000000000000, 4.00000000000000000000, 4.00000000000000000000, 4.00000000000000000000, 4.00000000000000000000
13.00000000000000000000, 0.00000000000000000000, 4151.79492187500000000000, 4150.25634765625000000000, 4183.58984375000000000000, 4159.48730468750000000000, 4168.71777343750000000000, 4220.00000000000000000000, 4163.07666015625000000000, 4152.82031250000000000000, 4132.82031250000000000000, 4157.43603515625000000000, 4150.25634765625000000000, 4186.66650390625000000000, 4180.00000000000000000000, 4159.48730468750000000000, 695.00000000000000000000, 2042.00000000000000000000, 2059.00000000000000000000, 0.00000000000000000000, 0.00000000000000000000, 2161.00000000000000000000, 338.00000000000000000000, 4.00000000000000000000, 4.00000000000000000000, 4.00000000000000000000, 4.00000000000000000000, 4.00000000000000000000, 4.00000000000000000000, 4.00000000000000000000, 2.00000000000000000000, 4.00000000000000000000, 4.00000000000000000000, 4.00000000000000000000, 4.00000000000000000000, 4.00000000000000000000, 4.00000000000000000000, 4.00000000000000000000, 4.00000000000000000000
14.00000000000000000000, 0.00000000000000000000, 4158.97412109375000000000, 4151.79492187500000000000, 4173.84619140625000000000, 4166.15380859375000000000, 4169.74365234375000000000, 4225.12792968750000000000, 4168.20507812500000000000, 4158.97412109375000000000, 4133.33300781250000000000, 4161.02539062500000000000, 4150.76904296875000000000, 4190.76904296875000000000, 4182.05126953125000000000, 4161.02539062500000000000, 820.00000000000000000000, 2042.00000000000000000000, 2059.00000000000000000000, 0.00000000000000000000, 0.00000000000000000000, 2161.00000000000000000000, 346.00000000000000000000, 4.00000000000000000000, 4.00000000000000000000, 4.00000000000000000000, 4.00000000000000000000, 4.00000000000000000000, 4.00000000000000000000, 4.00000000000000000000, 2.00000000000000000000, 4.00000000000000000000, 4.00000000000000000000, 4.00000000000000000000, 4.00000000000000000000, 4.00000000000000000000, 4.00000000000000000000, 4.00000000000000000000, 4.00000000000000000000
15.00000000000000000000, 0.00000000000000000000, 4155.89746093750000000000, 4155.89746093750000000000, 4173.84619140625000000000, 4150.25634765625000000000, 4167.69238281250000000000, 4222.56396484375000000000, 4167.69238281250000000000, 4160.51269531250000000000, 4133.33300781250000000000, 4160.51269531250000000000, 4150.25634765625000000000, 4189.74365234375000000000, 4177.43603515625000000000, 4158.46142578125000000000, 768.00000000000000000000, 2039.00000000000000000000, 2059.00000000000000000000, 0.00000000000000000000, 0.00000000000000000000, 2161.00000000000000000000, 354.00000000000000000000, 4.00000000000000000000, 4.00000000000000000000, 4.00000000000000000000, 4.00000000000000000000, 4.00000000000000000000, 4.00000000000000000000, 4.00000000000000000000, 2.00000000000000000000, 4.00000000000000000000, 4.00000000000000000000, 4.00000000000000000000, 4.00000000000000000000, 4.00000000000000000000, 4.00000000000000000000, 4.00000000000000000000, 4.00000000000000000000
16.00000000000000000000, 0.00000000000000000000, 4147.17919921875000000000, 4150.76904296875000000000, 4187.69238281250000000000, 4145.12792968750000000000, 4162.56396484375000000000, 4214.87158203125000000000, 4164.10253906250000000000, 4155.38427734375000000000, 4129.74365234375000000000, 4145.12792968750000000000, 4147.69238281250000000000, 4188.20507812500000000000, 4170.76904296875000000000, 4157.94873046875000000000, 0.00000000000000000000, 2041.00000000000000000000, 2060.00000000000000000000, 0.00000000000000000000, 0.00000000000000000000, 2161.00000000000000000000, 362.00000000000000000000, 4.00000000000000000000, 4.00000000000000000000, 4.00000000000000000000, 4.00000000000000000000, 4.00000000000000000000, 4.00000000000000000000, 4.00000000000000000000, 2.00000000000000000000, 4.00000000000000000000, 4.00000000000000000000, 4.00000000000000000000, 4.00000000000000000000, 4.00000000000000000000, 4.00000000000000000000, 4.00000000000000000000, 4.00000000000000000000
17.00000000000000000000, 0.00000000000000000000, 4151.28173828125000000000, 4147.17919921875000000000, 4180.51269531250000000000, 4167.17919921875000000000, 4165.64111328125000000000, 4220.00000000000000000000, 4168.20507812500000000000, 4155.89746093750000000000, 4131.79492187500000000000, 4148.20507812500000000000, 4150.76904296875000000000, 4194.35888671875000000000, 4178.97412109375000000000, 4163.07666015625000000000, 0.00000000000000000000, 2041.00000000000000000000, 2059.00000000000000000000, 0.00000000000000000000, 0.00000000000000000000, 2161.00000000000000000000, 369.00000000000000000000, 4.00000000000000000000, 4.00000000000000000000, 4.00000000000000000000, 4.00000000000000000000, 4.00000000000000000000, 4.00000000000000000000, 4.00000000000000000000, 2.00000000000000000000, 4.00000000000000000000, 4.00000000000000000000, 4.00000000000000000000, 4.00000000000000000000, 4.00000000000000000000, 4.00000000000000000000, 4.00000000000000000000, 4.00000000000000000000
18.00000000000000000000, 0.00000000000000000000, 4156.92285156250000000000, 4154.35888671875000000000, 4162.56396484375000000000, 4168.20507812500000000000, 4169.23046875000000000000, 4227.69238281250000000000, 4172.30761718750000000000, 4158.46142578125000000000, 4133.33300781250000000000, 4155.89746093750000000000, 4152.30761718750000000000, 4194.87158203125000000000, 4183.07666015625000000000, 4159.48730468750000000000, 0.00000000000000000000, 2039.00000000000000000000, 2059.00000000000000000000, 0.00000000000000000000, 0.00000000000000000000, 2161.00000000000000000000, 377.00000000000000000000, 4.00000000000000000000, 4.00000000000000000000, 4.00000000000000000000, 4.00000000000000000000, 4.00000000000000000000, 4.00000000000000000000, 4.00000000000000000000, 2.00000000000000000000, 4.00000000000000000000, 4.00000000000000000000, 4.00000000000000000000, 4.00000000000000000000, 4.00000000000000000000, 4.00000000000000000000, 4.00000000000000000000, 4.00000000000000000000
19.00000000000000000000, 0.00000000000000000000, 4143.58984375000000000000, 4153.33300781250000000000, 4164.10253906250000000000, 4143.07666015625000000000, 4166.15380859375000000000, 4218.97412109375000000000, 4171.79492187500000000000, 4153.33300781250000000000, 4132.82031250000000000000, 4149.74365234375000000000, 4146.66650390625000000000, 4178.46142578125000000000, 4171.28173828125000000000, 4147.17919921875000000000, 0.00000000000000000000, 2040.00000000000000000000, 2058.00000000000000000000, 0.00000000000000000000, 0.00000000000000000000, 2161.00000000000000000000, 385.00000000000000000000, 4.00000000000000000000, 4.00000000000000000000, 4.00000000000000000000, 4.00000000000000000000, 4.00000000000000000000, 4.00000000000000000000, 4.00000000000000000000, 2.00000000000000000000, 4.00000000000000000000, 4.00000000000000000000, 4.00000000000000000000, 4.00000000000000000000, 4.00000000000000000000, 4.00000000000000000000, 4.00000000000000000000, 4.00000000000000000000
20.00000000000000000000, 0.00000000000000000000, 4141.02539062500000000000, 4148.20507812500000000000, 4178.46142578125000000000, 4141.53857421875000000000, 4161.53857421875000000000, 4214.87158203125000000000, 4173.33300781250000000000, 4155.89746093750000000000, 4133.33300781250000000000, 4143.58984375000000000000, 4140.51269531250000000000, 4173.33300781250000000000, 4163.07666015625000000000, 4147.17919921875000000000, 0.00000000000000000000, 2040.00000000000000000000, 2058.00000000000000000000, 0.00000000000000000000, 0.00000000000000000000, 2161.00000000000000000000, 393.00000000000000000000, 4.00000000000000000000, 4.00000000000000000000, 4.00000000000000000000, 4.00000000000000000000, 4.00000000000000000000, 4.00000000000000000000, 4.00000000000000000000, 2.00000000000000000000, 4.00000000000000000000, 4.00000000000000000000, 4.00000000000000000000, 4.00000000000000000000, 4.00000000000000000000, 4.00000000000000000000, 4.00000000000000000000, 4.00000000000000000000
21.00000000000000000000, 0.00000000000000000000, 4153.33300781250000000000, 4152.30761718750000000000, 4169.74365234375000000000, 4160.00000000000000000000, 4168.20507812500000000000, 4222.05126953125000000000, 4175.38427734375000000000, 4161.53857421875000000000, 4136.92285156250000000000, 4152.82031250000000000000, 4143.58984375000000000000, 4182.05126953125000000000, 4168.71777343750000000000, 4152.30761718750000000000, 0.00000000000000000000, 2038.00000000000000000000, 2060.00000000000000000000, 0.00000000000000000000, 0.00000000000000000000, 2161.00000000000000000000, 401.00000000000000000000, 4.00000000000000000000, 4.00000000000000000000, 4.00000000000000000000, 4.00000000000000000000, 4.00000000000000000000, 4.00000000000000000000, 4.00000000000000000000, 2.00000000000000000000, 4.00000000000000000000, 4.00000000000000000000, 4.00000000000000000000, 4.00000000000000000000, 4.00000000000000000000, 4.00000000000000000000, 4.00000000000000000000, 4.00000000000000000000
22.00000000000000000000, 0.00000000000000000000, 4158.46142578125000000000, 4161.53857421875000000000, 4173.33300781250000000000, 4160.51269531250000000000, 4178.97412109375000000000, 4224.61523437500000000000, 4177.43603515625000000000, 4162.05126953125000000000, 4143.58984375000000000000, 4162.05126953125000000000, 4153.33300781250000000000, 4184.61523437500000000000, 4175.38427734375000000000, 4151.28173828125000000000, 0.00000000000000000000, 2039.00000000000000000000, 2059.00000000000000000000, 0.00000000000000000000, 0.00000000000000000000, 2161.00000000000000000000, 409.00000000000000000000, 4.00000000000000000000, 4.00000000000000000000, 4.00000000000000000000, 4.00000000000000000000, 4.00000000000000000000, 4.00000000000000000000, 4.00000000000000000000, 2.00000000000000000000, 4.00000000000000000000, 4.00000000000000000000, 4.00000000000000000000, 4.00000000000000000000, 4.00000000000000000000, 4.00000000000000000000, 4.00000000000000000000, 4.00000000000000000000
