title:1                                                                               , recorded:26.02.16 21.46.07, sampling:128, subject:eyes-closed-thinking                                                            , labels:COUNTER INTERPOLATED AF3 F7 F3 FC5 T7 P7 O1 O2 P8 T8 FC6 F4 F8 AF4 RAW_CQ GYROX GYROY MARKER SYNC TIME_STAMP_s TIME_STAMP_ms CQ_AF3 CQ_F7 CQ_F3 CQ_FC5 CQ_T7 CQ_P7 CQ_O1 CQ_O2 CQ_P8 CQ_T8 CQ_FC6 CQ_F4 CQ_F8 CQ_AF4 CQ_CMS CQ_DRL, chan:39, units:emotiv
70.00000000000000000000, 0.00000000000000000000, 4158.46142578125000000000, 4192.30761718750000000000, 4147.69238281250000000000, 4158.46142578125000000000, 4160.51269531250000000000, 4147.17919921875000000000, 4147.69238281250000000000, 4152.82031250000000000000, 4152.82031250000000000000, 4147.69238281250000000000, 4163.58984375000000000000, 4169.74365234375000000000, 4168.20507812500000000000, 4148.71777343750000000000, 735.00000000000000000000, 2041.00000000000000000000, 2057.00000000000000000000, 0.00000000000000000000, 0.00000000000000000000, 1343.00000000000000000000, 816.00000000000000000000, 0.00000000000000000000, 0.00000000000000000000, 0.00000000000000000000, 0.00000000000000000000, 0.00000000000000000000, 0.00000000000000000000, 4.00000000000000000000, 0.00000000000000000000, 0.00000000000000000000, 0.00000000000000000000, 0.00000000000000000000, 0.00000000000000000000, 0.00000000000000000000, 0.00000000000000000000, 0.00000000000000000000, 0.00000000000000000000
71.00000000000000000000, 0.00000000000000000000, 4156.92285156250000000000, 4189.23046875000000000000, 4153.84619140625000000000, 4156.41015625000000000000, 4147.69238281250000000000, 4140.51269531250000000000, 4150.76904296875000000000, 4155.89746093750000000000, 4154.35888671875000000000, 4136.41015625000000000000, 4149.23046875000000000000, 4170.76904296875000000000, 4163.58984375000000000000, 4140.51269531250000000000, 105.00000000000000000000, 2038.00000000000000000000, 2057.00000000000000000000, 0.00000000000000000000, 0.00000000000000000000, 1343.00000000000000000000, 824.00000000000000000000, 0.00000000000000000000, 0.00000000000000000000, 0.00000000000000000000, 0.00000000000000000000, 0.00000000000000000000, 0.00000000000000000000, 4.00000000000000000000, 1.00000000000000000000, 0.00000000000000000000, 0.00000000000000000000, 0.00000000000000000000, 0.00000000000000000000, 0.00000000000000000000, 0.00000000000000000000, 0.00000000000000000000, 0.00000000000000000000
72.00000000000000000000, 0.00000000000000000000, 4150.25634765625000000000, 4180.51269531250000000000, 4147.17919921875000000000, 4152.82031250000000000000, 4118.97412109375000000000, 4148.71777343750000000000, 4143.58984375000000000000, 4151.28173828125000000000, 4152.82031250000000000000, 4148.71777343750000000000, 4143.58984375000000000000, 4167.69238281250000000000, 4160.00000000000000000000, 4137.43603515625000000000, 187.00000000000000000000, 2038.00000000000000000000, 2059.00000000000000000000, 0.00000000000000000000, 0.00000000000000000000, 1343.00000000000000000000, 831.00000000000000000000, 0.00000000000000000000, 0.00000000000000000000, 0.00000000000000000000, 0.00000000000000000000, 0.00000000000000000000, 0.00000000000000000000, 4.00000000000000000000, 1.00000000000000000000, 2.00000000000000000000, 0.00000000000000000000, 0.00000000000000000000, 0.00000000000000000000, 0.00000000000000000000, 0.00000000000000000000, 0.00000000000000000000, 0.00000000000000000000
73.00000000000000000000, 0.00000000000000000000, 4148.71777343750000000000, 4176.41015625000000000000, 4151.28173828125000000000, 4148.20507812500000000000, 4126.15380859375000000000, 4148.71777343750000000000, 4138.97412109375000000000, 4147.69238281250000000000, 4151.79492187500000000000, 4154.35888671875000000000, 4150.25634765625000000000, 4163.07666015625000000000, 4161.02539062500000000000, 4136.92285156250000000000, 831.00000000000000000000, 2038.00000000000000000000, 2059.00000000000000000000, 0.00000000000000000000, 0.00000000000000000000, 1343.00000000000000000000, 839.00000000000000000000, 0.00000000000000000000, 0.00000000000000000000, 0.00000000000000000000, 0.00000000000000000000, 0.00000000000000000000, 0.00000000000000000000, 4.00000000000000000000, 1.00000000000000000000, 2.00000000000000000000, 4.00000000000000000000, 0.00000000000000000000, 0.00000000000000000000, 0.00000000000000000000, 0.00000000000000000000, 0.00000000000000000000, 0.00000000000000000000
74.00000000000000000000, 0.00000000000000000000, 4142.05126953125000000000, 4166.66650390625000000000, 4146.15380859375000000000, 4140.00000000000000000000, 4136.92285156250000000000, 4144.61523437500000000000, 4140.00000000000000000000, 4146.66650390625000000000, 4151.79492187500000000000, 4135.38427734375000000000, 4145.64111328125000000000, 4157.43603515625000000000, 4152.30761718750000000000, 4126.15380859375000000000, 696.00000000000000000000, 2037.00000000000000000000, 2056.00000000000000000000, 0.00000000000000000000, 0.00000000000000000000, 1343.00000000000000000000, 846.00000000000000000000, 0.00000000000000000000, 0.00000000000000000000, 0.00000000000000000000, 0.00000000000000000000, 0.00000000000000000000, 0.00000000000000000000, 4.00000000000000000000, 1.00000000000000000000, 2.00000000000000000000, 4.00000000000000000000, 4.00000000000000000000, 0.00000000000000000000, 0.00000000000000000000, 0.00000000000000000000, 0.00000000000000000000, 0.00000000000000000000
75.00000000000000000000, 0.00000000000000000000, 4142.05126953125000000000, 4166.15380859375000000000, 4151.28173828125000000000, 4142.56396484375000000000, 4148.20507812500000000000, 4150.76904296875000000000, 4141.53857421875000000000, 4151.79492187500000000000, 4152.82031250000000000000, 4135.89746093750000000000, 4146.15380859375000000000, 4161.53857421875000000000, 4150.25634765625000000000, 4127.17919921875000000000, 788.00000000000000000000, 2040.00000000000000000000, 2057.00000000000000000000, 0.00000000000000000000, 0.00000000000000000000, 1343.00000000000000000000, 853.00000000000000000000, 0.00000000000000000000, 0.00000000000000000000, 0.00000000000000000000, 0.00000000000000000000, 0.00000000000000000000, 0.00000000000000000000, 4.00000000000000000000, 1.00000000000000000000, 2.00000000000000000000, 4.00000000000000000000, 4.00000000000000000000, 4.00000000000000000000, 0.00000000000000000000, 0.00000000000000000000, 0.00000000000000000000, 0.00000000000000000000
76.00000000000000000000, 0.00000000000000000000, 4149.74365234375000000000, 4181.53857421875000000000, 4147.17919921875000000000, 4153.84619140625000000000, 4170.76904296875000000000, 4152.82031250000000000000, 4145.64111328125000000000, 4156.41015625000000000000, 4154.35888671875000000000, 4148.71777343750000000000, 4161.02539062500000000000, 4171.28173828125000000000, 4159.48730468750000000000, 4141.02539062500000000000, 797.00000000000000000000, 2038.00000000000000000000, 2056.00000000000000000000, 0.00000000000000000000, 0.00000000000000000000, 1343.00000000000000000000, 861.00000000000000000000, 0.00000000000000000000, 0.00000000000000000000, 0.00000000000000000000, 0.00000000000000000000, 0.00000000000000000000, 0.00000000000000000000, 4.00000000000000000000, 1.00000000000000000000, 2.00000000000000000000, 4.00000000000000000000, 4.00000000000000000000, 4.00000000000000000000, 4.00000000000000000000, 0.00000000000000000000, 0.00000000000000000000, 0.00000000000000000000
77.00000000000000000000, 0.00000000000000000000, 4150.25634765625000000000, 4177.94873046875000000000, 4147.17919921875000000000, 4154.87158203125000000000, 4163.07666015625000000000, 4147.17919921875000000000, 4151.79492187500000000000, 4153.33300781250000000000, 4153.84619140625000000000, 4150.25634765625000000000, 4158.97412109375000000000, 4169.74365234375000000000, 4154.35888671875000000000, 4138.97412109375000000000, 694.00000000000000000000, 2039.00000000000000000000, 2056.00000000000000000000, 0.00000000000000000000, 0.00000000000000000000, 1343.00000000000000000000, 868.00000000000000000000, 0.00000000000000000000, 0.00000000000000000000, 0.00000000000000000000, 0.00000000000000000000, 0.00000000000000000000, 0.00000000000000000000, 4.00000000000000000000, 1.00000000000000000000, 2.00000000000000000000, 4.00000000000000000000, 4.00000000000000000000, 4.00000000000000000000, 4.00000000000000000000, 4.00000000000000000000, 0.00000000000000000000, 0.00000000000000000000
78.00000000000000000000, 0.00000000000000000000, 4147.17919921875000000000, 4167.17919921875000000000, 4143.07666015625000000000, 4146.15380859375000000000, 4144.10253906250000000000, 4147.17919921875000000000, 4150.25634765625000000000, 4149.74365234375000000000, 4153.84619140625000000000, 4161.53857421875000000000, 4147.17919921875000000000, 4164.61523437500000000000, 4149.74365234375000000000, 4133.33300781250000000000, 696.00000000000000000000, 2041.00000000000000000000, 2056.00000000000000000000, 0.00000000000000000000, 0.00000000000000000000, 1343.00000000000000000000, 876.00000000000000000000, 0.00000000000000000000, 0.00000000000000000000, 0.00000000000000000000, 0.00000000000000000000, 0.00000000000000000000, 0.00000000000000000000, 4.00000000000000000000, 1.00000000000000000000, 2.00000000000000000000, 4.00000000000000000000, 4.00000000000000000000, 4.00000000000000000000, 4.00000000000000000000, 4.00000000000000000000, 0.00000000000000000000, 0.00000000000000000000
79.00000000000000000000, 0.00000000000000000000, 4152.30761718750000000000, 4173.84619140625000000000, 4148.71777343750000000000, 4143.58984375000000000000, 4144.61523437500000000000, 4151.28173828125000000000, 4145.64111328125000000000, 4152.82031250000000000000, 4154.87158203125000000000, 4155.38427734375000000000, 4147.17919921875000000000, 4168.71777343750000000000, 4158.46142578125000000000, 4135.89746093750000000000, 788.00000000000000000000, 2041.00000000000000000000, 2055.00000000000000000000, 0.00000000000000000000, 0.00000000000000000000, 1343.00000000000000000000, 883.00000000000000000000, 0.00000000000000000000, 0.00000000000000000000, 0.00000000000000000000, 0.00000000000000000000, 0.00000000000000000000, 0.00000000000000000000, 4.00000000000000000000, 1.00000000000000000000, 2.00000000000000000000, 4.00000000000000000000, 4.00000000000000000000, 4.00000000000000000000, 4.00000000000000000000, 4.00000000000000000000, 0.00000000000000000000, 0.00000000000000000000
80.00000000000000000000, 0.00000000000000000000, 4148.20507812500000000000, 4173.33300781250000000000, 4149.74365234375000000000, 4141.02539062500000000000, 4122.05126953125000000000, 4149.23046875000000000000, 4148.20507812500000000000, 4153.33300781250000000000, 4153.33300781250000000000, 4135.89746093750000000000, 4146.15380859375000000000, 4166.66650390625000000000, 4151.79492187500000000000, 4129.74365234375000000000, 797.00000000000000000000, 2040.00000000000000000000, 2056.00000000000000000000, 0.00000000000000000000, 0.00000000000000000000, 1343.00000000000000000000, 890.00000000000000000000, 0.00000000000000000000, 0.00000000000000000000, 0.00000000000000000000, 0.00000000000000000000, 0.00000000000000000000, 0.00000000000000000000, 4.00000000000000000000, 1.00000000000000000000, 2.00000000000000000000, 4.00000000000000000000, 4.00000000000000000000, 4.00000000000000000000, 4.00000000000000000000, 4.00000000000000000000, 0.00000000000000000000, 0.00000000000000000000
81.00000000000000000000, 0.00000000000000000000, 4137.43603515625000000000, 4158.46142578125000000000, 4150.76904296875000000000, 4134.35888671875000000000, 4105.12792968750000000000, 4138.97412109375000000000, 4148.20507812500000000000, 4148.71777343750000000000, 4150.25634765625000000000, 4128.20507812500000000000, 4135.89746093750000000000, 4157.43603515625000000000, 4137.43603515625000000000, 4121.02539062500000000000, 694.00000000000000000000, 2041.00000000000000000000, 2057.00000000000000000000, 0.00000000000000000000, 0.00000000000000000000, 1343.00000000000000000000, 898.00000000000000000000, 0.00000000000000000000, 0.00000000000000000000, 0.00000000000000000000, 0.00000000000000000000, 0.00000000000000000000, 0.00000000000000000000, 4.00000000000000000000, 1.00000000000000000000, 2.00000000000000000000, 4.00000000000000000000, 4.00000000000000000000, 4.00000000000000000000, 4.00000000000000000000, 4.00000000000000000000, 0.00000000000000000000, 0.00000000000000000000
82.00000000000000000000, 0.00000000000000000000, 4145.64111328125000000000, 4163.58984375000000000000, 4153.33300781250000000000, 4142.05126953125000000000, 4149.23046875000000000000, 4136.41015625000000000000, 4138.46142578125000000000, 4148.71777343750000000000, 4150.76904296875000000000, 4126.15380859375000000000, 4144.61523437500000000000, 4165.12792968750000000000, 4145.12792968750000000000, 4131.79492187500000000000, 696.00000000000000000000, 2040.00000000000000000000, 2058.00000000000000000000, 0.00000000000000000000, 0.00000000000000000000, 1343.00000000000000000000, 905.00000000000000000000, 0.00000000000000000000, 0.00000000000000000000, 0.00000000000000000000, 0.00000000000000000000, 0.00000000000000000000, 0.00000000000000000000, 4.00000000000000000000, 1.00000000000000000000, 2.00000000000000000000, 4.00000000000000000000, 4.00000000000000000000, 4.00000000000000000000, 4.00000000000000000000, 4.00000000000000000000, 0.00000000000000000000, 0.00000000000000000000
91.00000000000000000000, 0.00000000000000000000, 4154.87158203125000000000, 4180.51269531250000000000, 4145.12792968750000000000, 4156.41015625000000000000, 4177.94873046875000000000, 4163.58984375000000000000, 4144.10253906250000000000, 4155.38427734375000000000, 4156.41015625000000000000, 4146.66650390625000000000, 4149.74365234375000000000, 4171.28173828125000000000, 4151.79492187500000000000, 4140.51269531250000000000, 788.00000000000000000000, 2039.00000000000000000000, 2059.00000000000000000000, 0.00000000000000000000, 0.00000000000000000000, 1343.00000000000000000000, 913.00000000000000000000, 0.00000000000000000000, 0.00000000000000000000, 0.00000000000000000000, 0.00000000000000000000, 0.00000000000000000000, 0.00000000000000000000, 4.00000000000000000000, 1.00000000000000000000, 2.00000000000000000000, 4.00000000000000000000, 4.00000000000000000000, 4.00000000000000000000, 4.00000000000000000000, 4.00000000000000000000, 0.00000000000000000000, 0.00000000000000000000
92.00000000000000000000, 0.00000000000000000000, 4149.74365234375000000000, 4176.41015625000000000000, 4149.74365234375000000000, 4145.12792968750000000000, 4160.51269531250000000000, 4164.61523437500000000000, 4141.53857421875000000000, 4152.82031250000000000000, 4151.79492187500000000000, 4127.17919921875000000000, 4144.10253906250000000000, 4164.10253906250000000000, 4147.69238281250000000000, 4134.87158203125000000000, 797.00000000000000000000, 2040.00000000000000000000, 2058.00000000000000000000, 0.00000000000000000000, 0.00000000000000000000, 1343.00000000000000000000, 920.00000000000000000000, 0.00000000000000000000, 0.00000000000000000000, 0.00000000000000000000, 0.00000000000000000000, 0.00000000000000000000, 0.00000000000000000000, 4.00000000000000000000, 1.00000000000000000000, 2.00000000000000000000, 4.00000000000000000000, 4.00000000000000000000, 4.00000000000000000000, 4.00000000000000000000, 4.00000000000000000000, 0.00000000000000000000, 0.00000000000000000000
93.00000000000000000000, 0.00000000000000000000, 4137.43603515625000000000, 4158.97412109375000000000, 4145.64111328125000000000, 4131.28173828125000000000, 4106.66650390625000000000, 4140.00000000000000000000, 4134.87158203125000000000, 4149.74365234375000000000, 4147.69238281250000000000, 4127.69238281250000000000, 4135.38427734375000000000, 4154.87158203125000000000, 4138.46142578125000000000, 4119.48730468750000000000, 694.00000000000000000000, 2039.00000000000000000000, 2058.00000000000000000000, 0.00000000000000000000, 0.00000000000000000000, 1343.00000000000000000000, 927.00000000000000000000, 0.00000000000000000000, 0.00000000000000000000, 0.00000000000000000000, 0.00000000000000000000, 0.00000000000000000000, 0.00000000000000000000, 4.00000000000000000000, 1.00000000000000000000, 2.00000000000000000000, 4.00000000000000000000, 4.00000000000000000000, 4.00000000000000000000, 4.00000000000000000000, 4.00000000000000000000, 0.00000000000000000000, 0.00000000000000000000
94.00000000000000000000, 0.00000000000000000000, 4144.61523437500000000000, 4170.76904296875000000000, 4148.71777343750000000000, 4145.64111328125000000000, 4136.92285156250000000000, 4143.58984375000000000000, 4139.48730468750000000000, 4150.76904296875000000000, 4152.82031250000000000000, 4140.00000000000000000000, 4150.76904296875000000000, 4165.12792968750000000000, 4149.23046875000000000000, 4133.84619140625000000000, 696.00000000000000000000, 2039.00000000000000000000, 2059.00000000000000000000, 0.00000000000000000000, 0.00000000000000000000, 1343.00000000000000000000, 935.00000000000000000000, 0.00000000000000000000, 0.00000000000000000000, 0.00000000000000000000, 0.00000000000000000000, 0.00000000000000000000, 0.00000000000000000000, 4.00000000000000000000, 1.00000000000000000000, 2.00000000000000000000, 4.00000000000000000000, 4.00000000000000000000, 4.00000000000000000000, 4.00000000000000000000, 4.00000000000000000000, 0.00000000000000000000, 0.00000000000000000000
95.00000000000000000000, 0.00000000000000000000, 4151.28173828125000000000, 4178.97412109375000000000, 4144.61523437500000000000, 4151.28173828125000000000, 4183.07666015625000000000, 4152.30761718750000000000, 4141.02539062500000000000, 4149.74365234375000000000, 4154.35888671875000000000, 4143.58984375000000000000, 4152.82031250000000000000, 4169.23046875000000000000, 4151.79492187500000000000, 4142.05126953125000000000, 788.00000000000000000000, 2040.00000000000000000000, 2059.00000000000000000000, 0.00000000000000000000, 0.00000000000000000000, 1343.00000000000000000000, 942.00000000000000000000, 0.00000000000000000000, 0.00000000000000000000, 0.00000000000000000000, 0.00000000000000000000, 0.00000000000000000000, 0.00000000000000000000, 4.00000000000000000000, 1.00000000000000000000, 2.00000000000000000000, 4.00000000000000000000, 4.00000000000000000000, 4.00000000000000000000, 4.00000000000000000000, 4.00000000000000000000, 0.00000000000000000000, 0.00000000000000000000
96.00000000000000000000, 0.00000000000000000000, 4144.61523437500000000000, 4162.56396484375000000000, 4148.71777343750000000000, 4134.87158203125000000000, 4145.64111328125000000000, 4144.10253906250000000000, 4135.38427734375000000000, 4147.69238281250000000000, 4145.12792968750000000000, 4146.66650390625000000000, 4134.87158203125000000000, 4158.46142578125000000000, 4140.51269531250000000000, 4128.71777343750000000000, 797.00000000000000000000, 2040.00000000000000000000, 2059.00000000000000000000, 0.00000000000000000000, 0.00000000000000000000, 1343.00000000000000000000, 950.00000000000000000000, 0.00000000000000000000, 0.00000000000000000000, 0.00000000000000000000, 0.00000000000000000000, 0.00000000000000000000, 0.00000000000000000000, 4.00000000000000000000, 1.00000000000000000000, 2.00000000000000000000, 4.00000000000000000000, 4.00000000000000000000, 4.00000000000000000000, 4.00000000000000000000, 4.00000000000000000000, 0.00000000000000000000, 0.00000000000000000000
97.00000000000000000000, 0.00000000000000000000, 4143.07666015625000000000, 4163.58984375000000000000, 4148.71777343750000000000, 4135.38427734375000000000, 4128.20507812500000000000, 4143.58984375000000000000, 4136.92285156250000000000, 4147.69238281250000000000, 4142.56396484375000000000, 4158.46142578125000000000, 4145.12792968750000000000, 4157.43603515625000000000, 4146.66650390625000000000, 4132.82031250000000000000, 694.00000000000000000000, 2039.00000000000000000000, 2058.00000000000000000000, 0.00000000000000000000, 0.00000000000000000000, 1343.00000000000000000000, 957.00000000000000000000, 0.00000000000000000000, 0.00000000000000000000, 0.00000000000000000000, 0.00000000000000000000, 0.00000000000000000000, 0.00000000000000000000, 4.00000000000000000000, 1.00000000000000000000, 2.00000000000000000000, 4.00000000000000000000, 4.00000000000000000000, 4.00000000000000000000, 4.00000000000000000000, 4.00000000000000000000, 0.00000000000000000000, 0.00000000000000000000
98.00000000000000000000, 0.00000000000000000000, 4147.69238281250000000000, 4174.87158203125000000000, 4151.79492187500000000000, 4148.71777343750000000000, 4158.97412109375000000000, 4147.69238281250000000000, 4140.51269531250000000000, 4151.79492187500000000000, 4150.25634765625000000000, 4156.92285156250000000000, 4158.46142578125000000000, 4166.15380859375000000000, 4154.35888671875000000000, 4142.05126953125000000000, 696.00000000000000000000, 2039.00000000000000000000, 2056.00000000000000000000, 0.00000000000000000000, 0.00000000000000000000, 1343.00000000000000000000, 964.00000000000000000000, 0.00000000000000000000, 0.00000000000000000000, 0.00000000000000000000, 0.00000000000000000000, 0.00000000000000000000, 0.00000000000000000000, 4.00000000000000000000, 1.00000000000000000000, 2.00000000000000000000, 4.00000000000000000000, 4.00000000000000000000, 4.00000000000000000000, 4.00000000000000000000, 4.00000000000000000000, 0.00000000000000000000, 0.00000000000000000000
99.00000000000000000000, 0.00000000000000000000, 4147.69238281250000000000, 4170.25634765625000000000, 4148.71777343750000000000, 4148.71777343750000000000, 4147.69238281250000000000, 4153.33300781250000000000, 4138.97412109375000000000, 4154.35888671875000000000, 4153.84619140625000000000, 4123.07666015625000000000, 4150.76904296875000000000, 4167.69238281250000000000, 4147.69238281250000000000, 4136.41015625000000000000, 788.00000000000000000000, 2041.00000000000000000000, 2057.00000000000000000000, 0.00000000000000000000, 0.00000000000000000000, 1343.00000000000000000000, 972.00000000000000000000, 0.00000000000000000000, 0.00000000000000000000, 0.00000000000000000000, 0.00000000000000000000, 0.00000000000000000000, 0.00000000000000000000, 4.00000000000000000000, 1.00000000000000000000, 2.00000000000000000000, 4.00000000000000000000, 4.00000000000000000000, 4.00000000000000000000, 4.00000000000000000000, 4.00000000000000000000, 0.00000000000000000000, 0.00000000000000000000
100.00000000000000000000, 0.00000000000000000000, 4142.56396484375000000000, 4165.12792968750000000000, 4147.17919921875000000000, 4141.02539062500000000000, 4135.38427734375000000000, 4149.23046875000000000000, 4134.35888671875000000000, 4150.76904296875000000000, 4147.69238281250000000000, 4103.07666015625000000000, 4145.64111328125000000000, 4161.53857421875000000000, 4146.15380859375000000000, 4132.30761718750000000000, 797.00000000000000000000, 2042.00000000000000000000, 2057.00000000000000000000, 0.00000000000000000000, 0.00000000000000000000, 1343.00000000000000000000, 979.00000000000000000000, 0.00000000000000000000, 0.00000000000000000000, 0.00000000000000000000, 0.00000000000000000000, 0.00000000000000000000, 0.00000000000000000000, 4.00000000000000000000, 1.00000000000000000000, 2.00000000000000000000, 4.00000000000000000000, 4.00000000000000000000, 4.00000000000000000000, 4.00000000000000000000, 4.00000000000000000000, 0.00000000000000000000, 0.00000000000000000000
101.00000000000000000000, 0.00000000000000000000, 4136.92285156250000000000, 4166.66650390625000000000, 4150.76904296875000000000, 4139.48730468750000000000, 4152.30761718750000000000, 4142.05126953125000000000, 4133.33300781250000000000, 4147.69238281250000000000, 4142.56396484375000000000, 4136.92285156250000000000, 4146.15380859375000000000, 4155.38427734375000000000, 4150.25634765625000000000, 4131.28173828125000000000, 694.00000000000000000000, 2042.00000000000000000000, 2056.00000000000000000000, 0.00000000000000000000, 0.00000000000000000000, 1343.00000000000000000000, 987.00000000000000000000, 0.00000000000000000000, 0.00000000000000000000, 0.00000000000000000000, 0.00000000000000000000, 0.00000000000000000000, 0.00000000000000000000, 4.00000000000000000000, 1.00000000000000000000, 2.00000000000000000000, 4.00000000000000000000, 4.00000000000000000000, 4.00000000000000000000, 4.00000000000000000000, 4.00000000000000000000, 0.00000000000000000000, 0.00000000000000000000
102.00000000000000000000, 0.00000000000000000000, 4137.94873046875000000000, 4165.12792968750000000000, 4147.69238281250000000000, 4142.05126953125000000000, 4153.33300781250000000000, 4148.20507812500000000000, 4137.94873046875000000000, 4149.74365234375000000000, 4147.17919921875000000000, 4172.30761718750000000000, 4147.17919921875000000000, 4154.35888671875000000000, 4151.79492187500000000000, 4130.25634765625000000000, 696.00000000000000000000, 2041.00000000000000000000, 2056.00000000000000000000, 0.00000000000000000000, 0.00000000000000000000, 1343.00000000000000000000, 994.00000000000000000000, 0.00000000000000000000, 0.00000000000000000000, 0.00000000000000000000, 0.00000000000000000000, 0.00000000000000000000, 0.00000000000000000000, 4.00000000000000000000, 1.00000000000000000000, 2.00000000000000000000, 4.00000000000000000000, 4.00000000000000000000, 4.00000000000000000000, 4.00000000000000000000, 4.00000000000000000000, 0.00000000000000000000, 0.00000000000000000000
103.00000000000000000000, 0.00000000000000000000, 4144.10253906250000000000, 4161.53857421875000000000, 4149.23046875000000000000, 4137.94873046875000000000, 4136.41015625000000000000, 4150.25634765625000000000, 4138.97412109375000000000, 4149.74365234375000000000, 4152.30761718750000000000, 4158.97412109375000000000, 4150.25634765625000000000, 4156.41015625000000000000, 4149.23046875000000000000, 4133.84619140625000000000, 788.00000000000000000000, 2043.00000000000000000000, 2056.00000000000000000000, 0.00000000000000000000, 0.00000000000000000000, 1344.00000000000000000000, 1.00000000000000000000, 0.00000000000000000000, 0.00000000000000000000, 0.00000000000000000000, 0.00000000000000000000, 0.00000000000000000000, 0.00000000000000000000, 4.00000000000000000000, 1.00000000000000000000, 2.00000000000000000000, 4.00000000000000000000, 4.00000000000000000000, 4.00000000000000000000, 4.00000000000000000000, 4.00000000000000000000, 0.00000000000000000000, 0.00000000000000000000
104.00000000000000000000, 0.00000000000000000000, 4145.64111328125000000000, 4162.56396484375000000000, 4148.20507812500000000000, 4136.92285156250000000000, 4138.46142578125000000000, 4142.56396484375000000000, 4136.41015625000000000000, 4148.20507812500000000000, 4150.25634765625000000000, 4137.94873046875000000000, 4152.82031250000000000000, 4159.48730468750000000000, 4145.12792968750000000000, 4137.43603515625000000000, 797.00000000000000000000, 2042.00000000000000000000, 2058.00000000000000000000, 0.00000000000000000000, 0.00000000000000000000, 1344.00000000000000000000, 9.00000000000000000000, 0.00000000000000000000, 0.00000000000000000000, 0.00000000000000000000, 0.00000000000000000000, 0.00000000000000000000, 0.00000000000000000000, 4.00000000000000000000, 1.00000000000000000000, 2.00000000000000000000, 4.00000000000000000000, 4.00000000000000000000, 4.00000000000000000000, 4.00000000000000000000, 4.00000000000000000000, 0.00000000000000000000, 0.00000000000000000000
105.00000000000000000000, 0.00000000000000000000, 4148.71777343750000000000, 4171.79492187500000000000, 4152.30761718750000000000, 4149.74365234375000000000, 4150.25634765625000000000, 4146.66650390625000000000, 4140.00000000000000000000, 4153.84619140625000000000, 4149.74365234375000000000, 4143.07666015625000000000, 4152.30761718750000000000, 4168.20507812500000000000, 4148.71777343750000000000, 4139.48730468750000000000, 694.00000000000000000000, 2044.00000000000000000000, 2058.00000000000000000000, 0.00000000000000000000, 0.00000000000000000000, 1344.00000000000000000000, 16.00000000000000000000, 0.00000000000000000000, 0.00000000000000000000, 0.00000000000000000000, 0.00000000000000000000, 0.00000000000000000000, 0.00000000000000000000, 4.00000000000000000000, 1.00000000000000000000, 2.00000000000000000000, 4.00000000000000000000, 4.00000000000000000000, 4.00000000000000000000, 4.00000000000000000000, 4.00000000000000000000, 0.00000000000000000000, 0.00000000000000000000
106.00000000000000000000, 0.00000000000000000000, 4152.30761718750000000000, 4177.94873046875000000000, 4144.61523437500000000000, 4157.43603515625000000000, 4146.66650390625000000000, 4155.89746093750000000000, 4145.12792968750000000000, 4153.84619140625000000000, 4147.69238281250000000000, 4142.56396484375000000000, 4144.61523437500000000000, 4170.25634765625000000000, 4155.38427734375000000000, 4138.97412109375000000000, 696.00000000000000000000, 2042.00000000000000000000, 2060.00000000000000000000, 0.00000000000000000000, 0.00000000000000000000, 1344.00000000000000000000, 24.00000000000000000000, 0.00000000000000000000, 0.00000000000000000000, 0.00000000000000000000, 0.00000000000000000000, 0.00000000000000000000, 0.00000000000000000000, 4.00000000000000000000, 1.00000000000000000000, 2.00000000000000000000, 4.00000000000000000000, 4.00000000000000000000, 4.00000000000000000000, 4.00000000000000000000, 4.00000000000000000000, 0.00000000000000000000, 0.00000000000000000000
107.00000000000000000000, 0.00000000000000000000, 4151.28173828125000000000, 4175.89746093750000000000, 4148.71777343750000000000, 4153.33300781250000000000, 4150.25634765625000000000, 4148.71777343750000000000, 4142.05126953125000000000, 4149.74365234375000000000, 4143.58984375000000000000, 4128.71777343750000000000, 4143.07666015625000000000, 4167.69238281250000000000, 4152.82031250000000000000, 4141.53857421875000000000, 788.00000000000000000000, 2043.00000000000000000000, 2061.00000000000000000000, 0.00000000000000000000, 0.00000000000000000000, 1344.00000000000000000000, 31.00000000000000000000, 0.00000000000000000000, 0.00000000000000000000, 0.00000000000000000000, 0.00000000000000000000, 0.00000000000000000000, 0.00000000000000000000, 4.00000000000000000000, 1.00000000000000000000, 2.00000000000000000000, 4.00000000000000000000, 4.00000000000000000000, 4.00000000000000000000, 4.00000000000000000000, 4.00000000000000000000, 0.00000000000000000000, 0.00000000000000000000
108.00000000000000000000, 0.00000000000000000000, 4145.64111328125000000000, 4172.30761718750000000000, 4146.15380859375000000000, 4150.25634765625000000000, 4162.05126953125000000000, 4143.07666015625000000000, 4140.00000000000000000000, 4147.69238281250000000000, 4147.69238281250000000000, 4128.71777343750000000000, 4155.38427734375000000000, 4166.66650390625000000000, 4150.76904296875000000000, 4144.61523437500000000000, 797.00000000000000000000, 2043.00000000000000000000, 2063.00000000000000000000, 0.00000000000000000000, 0.00000000000000000000, 1344.00000000000000000000, 39.00000000000000000000, 0.00000000000000000000, 0.00000000000000000000, 0.00000000000000000000, 0.00000000000000000000, 0.00000000000000000000, 0.00000000000000000000, 4.00000000000000000000, 1.00000000000000000000, 2.00000000000000000000, 4.00000000000000000000, 4.00000000000000000000, 4.00000000000000000000, 4.00000000000000000000, 4.00000000000000000000, 0.00000000000000000000, 0.00000000000000000000
109.00000000000000000000, 0.00000000000000000000, 4148.20507812500000000000, 4171.28173828125000000000, 4155.38427734375000000000, 4150.25634765625000000000, 4152.82031250000000000000, 4152.82031250000000000000, 4142.05126953125000000000, 4150.76904296875000000000, 4151.28173828125000000000, 4144.61523437500000000000, 4156.41015625000000000000, 4167.69238281250000000000, 4151.79492187500000000000, 4143.07666015625000000000, 694.00000000000000000000, 2041.00000000000000000000, 2063.00000000000000000000, 0.00000000000000000000, 0.00000000000000000000, 1344.00000000000000000000, 46.00000000000000000000, 0.00000000000000000000, 0.00000000000000000000, 0.00000000000000000000, 0.00000000000000000000, 0.00000000000000000000, 0.00000000000000000000, 4.00000000000000000000, 1.00000000000000000000, 2.00000000000000000000, 4.00000000000000000000, 4.00000000000000000000, 4.00000000000000000000, 4.00000000000000000000, 4.00000000000000000000, 0.00000000000000000000, 0.00000000000000000000
110.00000000000000000000, 0.00000000000000000000, 4147.17919921875000000000, 4168.71777343750000000000, 4149.23046875000000000000, 4148.71777343750000000000, 4127.69238281250000000000, 4159.48730468750000000000, 4140.51269531250000000000, 4149.74365234375000000000, 4147.17919921875000000000, 4156.41015625000000000000, 4145.64111328125000000000, 4160.00000000000000000000, 4146.66650390625000000000, 4137.94873046875000000000, 696.00000000000000000000, 2040.00000000000000000000, 2062.00000000000000000000, 0.00000000000000000000, 0.00000000000000000000, 1344.00000000000000000000, 53.00000000000000000000, 0.00000000000000000000, 0.00000000000000000000, 0.00000000000000000000, 0.00000000000000000000, 0.00000000000000000000, 0.00000000000000000000, 4.00000000000000000000, 1.00000000000000000000, 2.00000000000000000000, 4.00000000000000000000, 4.00000000000000000000, 4.00000000000000000000, 4.00000000000000000000, 4.00000000000000000000, 0.00000000000000000000, 0.00000000000000000000
111.00000000000000000000, 0.00000000000000000000, 4141.02539062500000000000, 4161.02539062500000000000, 4153.33300781250000000000, 4144.10253906250000000000, 4112.82031250000000000000, 4146.15380859375000000000, 4134.87158203125000000000, 4147.69238281250000000000, 4149.23046875000000000000, 4148.20507812500000000000, 4144.10253906250000000000, 4153.84619140625000000000, 4141.53857421875000000000, 4132.30761718750000000000, 788.00000000000000000000, 2041.00000000000000000000, 2061.00000000000000000000, 0.00000000000000000000, 0.00000000000000000000, 1344.00000000000000000000, 61.00000000000000000000, 0.00000000000000000000, 0.00000000000000000000, 0.00000000000000000000, 0.00000000000000000000, 0.00000000000000000000, 0.00000000000000000000, 4.00000000000000000000, 1.00000000000000000000, 2.00000000000000000000, 4.00000000000000000000, 4.00000000000000000000, 4.00000000000000000000, 4.00000000000000000000, 4.00000000000000000000, 0.00000000000000000000, 0.00000000000000000000
112.00000000000000000000, 0.00000000000000000000, 4147.69238281250000000000, 4170.76904296875000000000, 4148.20507812500000000000, 4151.79492187500000000000, 4138.46142578125000000000, 4142.05126953125000000000, 4141.02539062500000000000, 4149.74365234375000000000, 4152.82031250000000000000, 4145.64111328125000000000, 4158.97412109375000000000, 4167.69238281250000000000, 4153.84619140625000000000, 4142.56396484375000000000, 797.00000000000000000000, 2040.00000000000000000000, 2062.00000000000000000000, 0.00000000000000000000, 0.00000000000000000000, 1344.00000000000000000000, 68.00000000000000000000, 0.00000000000000000000, 0.00000000000000000000, 0.00000000000000000000, 0.00000000000000000000, 0.00000000000000000000, 0.00000000000000000000, 4.00000000000000000000, 1.00000000000000000000, 2.00000000000000000000, 4.00000000000000000000, 4.00000000000000000000, 4.00000000000000000000, 4.00000000000000000000, 4.00000000000000000000, 0.00000000000000000000, 0.00000000000000000000
113.00000000000000000000, 0.00000000000000000000, 4162.56396484375000000000, 4185.12792968750000000000, 4150.25634765625000000000, 4162.56396484375000000000, 4169.74365234375000000000, 4159.48730468750000000000, 4149.74365234375000000000, 4155.38427734375000000000, 4153.84619140625000000000, 4154.35888671875000000000, 4165.64111328125000000000, 4182.56396484375000000000, 4159.48730468750000000000, 4158.46142578125000000000, 694.00000000000000000000, 2040.00000000000000000000, 2061.00000000000000000000, 0.00000000000000000000, 0.00000000000000000000, 1344.00000000000000000000, 76.00000000000000000000, 0.00000000000000000000, 0.00000000000000000000, 0.00000000000000000000, 0.00000000000000000000, 0.00000000000000000000, 0.00000000000000000000, 4.00000000000000000000, 1.00000000000000000000, 2.00000000000000000000, 4.00000000000000000000, 4.00000000000000000000, 4.00000000000000000000, 4.00000000000000000000, 4.00000000000000000000, 0.00000000000000000000, 0.00000000000000000000
114.00000000000000000000, 0.00000000000000000000, 4157.43603515625000000000, 4176.41015625000000000000, 4146.66650390625000000000, 4158.97412109375000000000, 4172.82031250000000000000, 4161.53857421875000000000, 4141.53857421875000000000, 4153.84619140625000000000, 4153.33300781250000000000, 4157.94873046875000000000, 4158.46142578125000000000, 4172.82031250000000000000, 4147.69238281250000000000, 4155.38427734375000000000, 696.00000000000000000000, 2040.00000000000000000000, 2059.00000000000000000000, 0.00000000000000000000, 0.00000000000000000000, 1344.00000000000000000000, 83.00000000000000000000, 0.00000000000000000000, 0.00000000000000000000, 0.00000000000000000000, 0.00000000000000000000, 0.00000000000000000000, 0.00000000000000000000, 4.00000000000000000000, 1.00000000000000000000, 2.00000000000000000000, 4.00000000000000000000, 4.00000000000000000000, 4.00000000000000000000, 4.00000000000000000000, 4.00000000000000000000, 0.00000000000000000000, 0.00000000000000000000
115.00000000000000000000, 0.00000000000000000000, 4147.17919921875000000000, 4165.12792968750000000000, 4151.28173828125000000000, 4151.28173828125000000000, 4160.51269531250000000000, 4145.12792968750000000000, 4133.84619140625000000000, 4149.74365234375000000000, 4148.20507812500000000000, 4152.30761718750000000000, 4150.25634765625000000000, 4161.53857421875000000000, 4144.10253906250000000000, 4146.15380859375000000000, 788.00000000000000000000, 2037.00000000000000000000, 2059.00000000000000000000, 0.00000000000000000000, 0.00000000000000000000, 1344.00000000000000000000, 90.00000000000000000000, 0.00000000000000000000, 0.00000000000000000000, 0.00000000000000000000, 0.00000000000000000000, 0.00000000000000000000, 0.00000000000000000000, 4.00000000000000000000, 1.00000000000000000000, 2.00000000000000000000, 4.00000000000000000000, 4.00000000000000000000, 4.00000000000000000000, 4.00000000000000000000, 4.00000000000000000000, 0.00000000000000000000, 0.00000000000000000000
116.00000000000000000000, 0.00000000000000000000, 4155.89746093750000000000, 4173.84619140625000000000, 4149.74365234375000000000, 4158.46142578125000000000, 4163.58984375000000000000, 4149.74365234375000000000, 4140.00000000000000000000, 4151.79492187500000000000, 4147.69238281250000000000, 4148.20507812500000000000, 4156.92285156250000000000, 4171.28173828125000000000, 4151.28173828125000000000, 4154.35888671875000000000, 797.00000000000000000000, 2038.00000000000000000000, 2059.00000000000000000000, 0.00000000000000000000, 0.00000000000000000000, 1344.00000000000000000000, 98.00000000000000000000, 0.00000000000000000000, 0.00000000000000000000, 0.00000000000000000000, 0.00000000000000000000, 0.00000000000000000000, 0.00000000000000000000, 4.00000000000000000000, 1.00000000000000000000, 2.00000000000000000000, 4.00000000000000000000, 4.00000000000000000000, 4.00000000000000000000, 4.00000000000000000000, 4.00000000000000000000, 0.00000000000000000000, 0.00000000000000000000
117.00000000000000000000, 0.00000000000000000000, 4155.38427734375000000000, 4164.61523437500000000000, 4151.79492187500000000000, 4152.82031250000000000000, 4142.05126953125000000000, 4153.84619140625000000000, 4133.84619140625000000000, 4152.82031250000000000000, 4149.23046875000000000000, 4134.35888671875000000000, 4150.76904296875000000000, 4166.15380859375000000000, 4140.51269531250000000000, 4149.23046875000000000000, 694.00000000000000000000, 2037.00000000000000000000, 2057.00000000000000000000, 0.00000000000000000000, 0.00000000000000000000, 1344.00000000000000000000, 105.00000000000000000000, 0.00000000000000000000, 0.00000000000000000000, 0.00000000000000000000, 0.00000000000000000000, 0.00000000000000000000, 0.00000000000000000000, 4.00000000000000000000, 1.00000000000000000000, 2.00000000000000000000, 4.00000000000000000000, 4.00000000000000000000, 4.00000000000000000000, 4.00000000000000000000, 4.00000000000000000000, 0.00000000000000000000, 0.00000000000000000000
118.00000000000000000000, 0.00000000000000000000, 4145.12792968750000000000, 4146.66650390625000000000, 4151.28173828125000000000, 4134.87158203125000000000, 4108.20507812500000000000, 4136.41015625000000000000, 4121.53857421875000000000, 4147.69238281250000000000, 4144.61523437500000000000, 4126.66650390625000000000, 4137.43603515625000000000, 4149.74365234375000000000, 4125.12792968750000000000, 4131.28173828125000000000, 696.00000000000000000000, 2037.00000000000000000000, 2056.00000000000000000000, 0.00000000000000000000, 0.00000000000000000000, 1344.00000000000000000000, 113.00000000000000000000, 0.00000000000000000000, 0.00000000000000000000, 0.00000000000000000000, 0.00000000000000000000, 0.00000000000000000000, 0.00000000000000000000, 4.00000000000000000000, 1.00000000000000000000, 2.00000000000000000000, 4.00000000000000000000, 4.00000000000000000000, 4.00000000000000000000, 4.00000000000000000000, 4.00000000000000000000, 0.00000000000000000000, 0.00000000000000000000
119.00000000000000000000, 0.00000000000000000000, 4151.28173828125000000000, 4160.00000000000000000000, 4146.15380859375000000000, 4143.07666015625000000000, 4133.84619140625000000000, 4137.43603515625000000000, 4131.28173828125000000000, 4146.15380859375000000000, 4145.12792968750000000000, 4133.84619140625000000000, 4153.33300781250000000000, 4157.94873046875000000000, 4132.30761718750000000000, 4141.53857421875000000000, 788.00000000000000000000, 2038.00000000000000000000, 2055.00000000000000000000, 0.00000000000000000000, 0.00000000000000000000, 1344.00000000000000000000, 120.00000000000000000000, 0.00000000000000000000, 0.00000000000000000000, 0.00000000000000000000, 0.00000000000000000000, 0.00000000000000000000, 0.00000000000000000000, 4.00000000000000000000, 1.00000000000000000000, 2.00000000000000000000, 4.00000000000000000000, 4.00000000000000000000, 4.00000000000000000000, 4.00000000000000000000, 4.00000000000000000000, 0.00000000000000000000, 0.00000000000000000000
120.00000000000000000000, 0.00000000000000000000, 4158.46142578125000000000, 4170.76904296875000000000, 4147.69238281250000000000, 4157.94873046875000000000, 4160.51269531250000000000, 4147.69238281250000000000, 4140.51269531250000000000, 4149.23046875000000000000, 4148.20507812500000000000, 4132.30761718750000000000, 4157.94873046875000000000, 4167.17919921875000000000, 4138.46142578125000000000, 4154.35888671875000000000, 797.00000000000000000000, 2040.00000000000000000000, 2054.00000000000000000000, 0.00000000000000000000, 0.00000000000000000000, 1344.00000000000000000000, 127.00000000000000000000, 0.00000000000000000000, 0.00000000000000000000, 0.00000000000000000000, 0.00000000000000000000, 0.00000000000000000000, 0.00000000000000000000, 4.00000000000000000000, 1.00000000000000000000, 2.00000000000000000000, 4.00000000000000000000, 4.00000000000000000000, 4.00000000000000000000, 4.00000000000000000000, 4.00000000000000000000, 0.00000000000000000000, 0.00000000000000000000
121.00000000000000000000, 0.00000000000000000000, 4154.87158203125000000000, 4162.56396484375000000000, 4147.17919921875000000000, 4151.79492187500000000000, 4142.56396484375000000000, 4146.66650390625000000000, 4136.41015625000000000000, 4149.74365234375000000000, 4144.61523437500000000000, 4141.02539062500000000000, 4144.10253906250000000000, 4162.05126953125000000000, 4137.94873046875000000000, 4149.23046875000000000000, 694.00000000000000000000, 2041.00000000000000000000, 2054.00000000000000000000, 0.00000000000000000000, 0.00000000000000000000, 1344.00000000000000000000, 135.00000000000000000000, 0.00000000000000000000, 0.00000000000000000000, 0.00000000000000000000, 0.00000000000000000000, 0.00000000000000000000, 0.00000000000000000000, 4.00000000000000000000, 1.00000000000000000000, 2.00000000000000000000, 4.00000000000000000000, 4.00000000000000000000, 4.00000000000000000000, 4.00000000000000000000, 4.00000000000000000000, 0.00000000000000000000, 0.00000000000000000000
122.00000000000000000000, 0.00000000000000000000, 4159.48730468750000000000, 4165.64111328125000000000, 4151.79492187500000000000, 4150.25634765625000000000, 4141.02539062500000000000, 4154.87158203125000000000, 4138.46142578125000000000, 4151.28173828125000000000, 4145.12792968750000000000, 4161.53857421875000000000, 4154.87158203125000000000, 4169.74365234375000000000, 4146.15380859375000000000, 4152.82031250000000000000, 696.00000000000000000000, 2040.00000000000000000000, 2055.00000000000000000000, 0.00000000000000000000, 0.00000000000000000000, 1344.00000000000000000000, 142.00000000000000000000, 0.00000000000000000000, 0.00000000000000000000, 0.00000000000000000000, 0.00000000000000000000, 0.00000000000000000000, 0.00000000000000000000, 4.00000000000000000000, 1.00000000000000000000, 2.00000000000000000000, 4.00000000000000000000, 4.00000000000000000000, 4.00000000000000000000, 4.00000000000000000000, 4.00000000000000000000, 0.00000000000000000000, 0.00000000000000000000
123.00000000000000000000, 0.00000000000000000000, 4163.58984375000000000000, 4171.28173828125000000000, 4147.69238281250000000000, 4159.48730468750000000000, 4152.30761718750000000000, 4160.00000000000000000000, 4142.05126953125000000000, 4153.33300781250000000000, 4150.76904296875000000000, 4160.00000000000000000000, 4171.28173828125000000000, 4178.46142578125000000000, 4148.71777343750000000000, 4161.02539062500000000000, 788.00000000000000000000, 2042.00000000000000000000, 2056.00000000000000000000, 0.00000000000000000000, 0.00000000000000000000, 1344.00000000000000000000, 150.00000000000000000000, 0.00000000000000000000, 0.00000000000000000000, 0.00000000000000000000, 0.00000000000000000000, 0.00000000000000000000, 0.00000000000000000000, 4.00000000000000000000, 1.00000000000000000000, 2.00000000000000000000, 4.00000000000000000000, 4.00000000000000000000, 4.00000000000000000000, 4.00000000000000000000, 4.00000000000000000000, 0.00000000000000000000, 0.00000000000000000000
124.00000000000000000000, 0.00000000000000000000, 4160.51269531250000000000, 4165.12792968750000000000, 4150.25634765625000000000, 4157.43603515625000000000, 4152.30761718750000000000, 4147.17919921875000000000, 4137.94873046875000000000, 4153.33300781250000000000, 4153.33300781250000000000, 4150.25634765625000000000, 4166.66650390625000000000, 4173.84619140625000000000, 4141.53857421875000000000, 4157.94873046875000000000, 797.00000000000000000000, 2043.00000000000000000000, 2055.00000000000000000000, 0.00000000000000000000, 0.00000000000000000000, 1344.00000000000000000000, 157.00000000000000000000, 0.00000000000000000000, 0.00000000000000000000, 0.00000000000000000000, 0.00000000000000000000, 0.00000000000000000000, 0.00000000000000000000, 4.00000000000000000000, 1.00000000000000000000, 2.00000000000000000000, 4.00000000000000000000, 4.00000000000000000000, 4.00000000000000000000, 4.00000000000000000000, 4.00000000000000000000, 0.00000000000000000000, 0.00000000000000000000
125.00000000000000000000, 0.00000000000000000000, 4150.25634765625000000000, 4153.84619140625000000000, 4147.17919921875000000000, 4142.56396484375000000000, 4152.82031250000000000000, 4137.43603515625000000000, 4134.87158203125000000000, 4150.25634765625000000000, 4150.76904296875000000000, 4153.33300781250000000000, 4153.84619140625000000000, 4162.56396484375000000000, 4134.87158203125000000000, 4145.64111328125000000000, 694.00000000000000000000, 2041.00000000000000000000, 2057.00000000000000000000, 0.00000000000000000000, 0.00000000000000000000, 1344.00000000000000000000, 164.00000000000000000000, 0.00000000000000000000, 0.00000000000000000000, 0.00000000000000000000, 0.00000000000000000000, 0.00000000000000000000, 0.00000000000000000000, 4.00000000000000000000, 1.00000000000000000000, 2.00000000000000000000, 4.00000000000000000000, 4.00000000000000000000, 4.00000000000000000000, 4.00000000000000000000, 4.00000000000000000000, 0.00000000000000000000, 0.00000000000000000000
126.00000000000000000000, 0.00000000000000000000, 4146.15380859375000000000, 4146.66650390625000000000, 4154.35888671875000000000, 4136.41015625000000000000, 4153.84619140625000000000, 4142.05126953125000000000, 4138.46142578125000000000, 4149.74365234375000000000, 4149.23046875000000000000, 4147.17919921875000000000, 4150.76904296875000000000, 4163.07666015625000000000, 4132.30761718750000000000, 4140.00000000000000000000, 696.00000000000000000000, 2041.00000000000000000000, 2057.00000000000000000000, 0.00000000000000000000, 0.00000000000000000000, 1344.00000000000000000000, 172.00000000000000000000, 0.00000000000000000000, 0.00000000000000000000, 0.00000000000000000000, 0.00000000000000000000, 0.00000000000000000000, 0.00000000000000000000, 4.00000000000000000000, 1.00000000000000000000, 2.00000000000000000000, 4.00000000000000000000, 4.00000000000000000000, 4.00000000000000000000, 4.00000000000000000000, 4.00000000000000000000, 0.00000000000000000000, 0.00000000000000000000
127.00000000000000000000, 0.00000000000000000000, 4146.66650390625000000000, 4149.23046875000000000000, 4146.15380859375000000000, 4140.00000000000000000000, 4143.07666015625000000000, 4143.58984375000000000000, 4138.46142578125000000000, 4149.23046875000000000000, 4146.66650390625000000000, 4142.56396484375000000000, 4155.38427734375000000000, 4166.15380859375000000000, 4134.87158203125000000000, 4146.66650390625000000000, 788.00000000000000000000, 2044.00000000000000000000, 2055.00000000000000000000, 0.00000000000000000000, 0.00000000000000000000, 1344.00000000000000000000, 179.00000000000000000000, 0.00000000000000000000, 0.00000000000000000000, 0.00000000000000000000, 0.00000000000000000000, 0.00000000000000000000, 0.00000000000000000000, 4.00000000000000000000, 1.00000000000000000000, 2.00000000000000000000, 4.00000000000000000000, 4.00000000000000000000, 4.00000000000000000000, 4.00000000000000000000, 4.00000000000000000000, 0.00000000000000000000, 0.00000000000000000000
128.00000000000000000000, 0.00000000000000000000, 4150.25634765625000000000, 4152.82031250000000000000, 4150.76904296875000000000, 4140.51269531250000000000, 4136.41015625000000000000, 4140.51269531250000000000, 4136.41015625000000000000, 4149.23046875000000000000, 4143.58984375000000000000, 4147.17919921875000000000, 4156.41015625000000000000, 4161.53857421875000000000, 4135.38427734375000000000, 4150.76904296875000000000, 797.00000000000000000000, 2044.00000000000000000000, 2056.00000000000000000000, 0.00000000000000000000, 0.00000000000000000000, 1344.00000000000000000000, 187.00000000000000000000, 0.00000000000000000000, 0.00000000000000000000, 0.00000000000000000000, 0.00000000000000000000, 0.00000000000000000000, 0.00000000000000000000, 4.00000000000000000000, 1.00000000000000000000, 2.00000000000000000000, 4.00000000000000000000, 4.00000000000000000000, 4.00000000000000000000, 4.00000000000000000000, 4.00000000000000000000, 0.00000000000000000000, 0.00000000000000000000
0.00000000000000000000, 0.00000000000000000000, 4152.30761718750000000000, 4154.87158203125000000000, 4146.66650390625000000000, 4144.10253906250000000000, 4142.05126953125000000000, 4145.64111328125000000000, 4136.92285156250000000000, 4146.66650390625000000000, 4143.07666015625000000000, 4148.71777343750000000000, 4150.25634765625000000000, 4158.46142578125000000000, 4134.35888671875000000000, 4149.23046875000000000000, 0.00000000000000000000, 2043.00000000000000000000, 2057.00000000000000000000, 0.00000000000000000000, 0.00000000000000000000, 1344.00000000000000000000, 194.00000000000000000000, 0.00000000000000000000, 0.00000000000000000000, 0.00000000000000000000, 0.00000000000000000000, 0.00000000000000000000, 0.00000000000000000000, 4.00000000000000000000, 1.00000000000000000000, 2.00000000000000000000, 4.00000000000000000000, 4.00000000000000000000, 4.00000000000000000000, 4.00000000000000000000, 4.00000000000000000000, 0.00000000000000000000, 0.00000000000000000000
1.00000000000000000000, 0.00000000000000000000, 4152.30761718750000000000, 4156.92285156250000000000, 4152.82031250000000000000, 4147.69238281250000000000, 4138.46142578125000000000, 4147.17919921875000000000, 4136.92285156250000000000, 4145.64111328125000000000, 4146.66650390625000000000, 4141.02539062500000000000, 4144.61523437500000000000, 4164.61523437500000000000, 4133.84619140625000000000, 4147.17919921875000000000, 766.00000000000000000000, 2042.00000000000000000000, 2056.00000000000000000000, 0.00000000000000000000, 0.00000000000000000000, 1344.00000000000000000000, 201.00000000000000000000, 0.00000000000000000000, 4.00000000000000000000, 0.00000000000000000000, 0.00000000000000000000, 0.00000000000000000000, 0.00000000000000000000, 4.00000000000000000000, 1.00000000000000000000, 2.00000000000000000000, 4.00000000000000000000, 4.00000000000000000000, 4.00000000000000000000, 4.00000000000000000000, 4.00000000000000000000, 0.00000000000000000000, 0.00000000000000000000
2.00000000000000000000, 0.00000000000000000000, 4146.15380859375000000000, 4154.35888671875000000000, 4148.71777343750000000000, 4142.05126953125000000000, 4132.82031250000000000000, 4141.53857421875000000000, 4135.38427734375000000000, 4144.10253906250000000000, 4146.66650390625000000000, 4133.84619140625000000000, 4146.66650390625000000000, 4163.07666015625000000000, 4133.33300781250000000000, 4144.10253906250000000000, 633.00000000000000000000, 2041.00000000000000000000, 2055.00000000000000000000, 0.00000000000000000000, 0.00000000000000000000, 1344.00000000000000000000, 209.00000000000000000000, 0.00000000000000000000, 4.00000000000000000000, 4.00000000000000000000, 0.00000000000000000000, 0.00000000000000000000, 0.00000000000000000000, 4.00000000000000000000, 1.00000000000000000000, 2.00000000000000000000, 4.00000000000000000000, 4.00000000000000000000, 4.00000000000000000000, 4.00000000000000000000, 4.00000000000000000000, 4.00000000000000000000, 0.00000000000000000000
3.00000000000000000000, 0.00000000000000000000, 4146.15380859375000000000, 4150.76904296875000000000, 4149.23046875000000000000, 4136.41015625000000000000, 4144.10253906250000000000, 4135.89746093750000000000, 4135.89746093750000000000, 4146.66650390625000000000, 4144.61523437500000000000, 4132.82031250000000000000, 4149.23046875000000000000, 4160.00000000000000000000, 4131.79492187500000000000, 4144.10253906250000000000, 848.00000000000000000000, 2041.00000000000000000000, 2055.00000000000000000000, 0.00000000000000000000, 0.00000000000000000000, 1344.00000000000000000000, 216.00000000000000000000, 0.00000000000000000000, 4.00000000000000000000, 4.00000000000000000000, 4.00000000000000000000, 0.00000000000000000000, 0.00000000000000000000, 4.00000000000000000000, 1.00000000000000000000, 2.00000000000000000000, 4.00000000000000000000, 4.00000000000000000000, 4.00000000000000000000, 4.00000000000000000000, 4.00000000000000000000, 4.00000000000000000000, 4.00000000000000000000
4.00000000000000000000, 0.00000000000000000000, 4148.71777343750000000000, 4150.25634765625000000000, 4145.12792968750000000000, 4135.38427734375000000000, 4148.20507812500000000000, 4139.48730468750000000000, 4140.00000000000000000000, 4148.71777343750000000000, 4146.15380859375000000000, 4134.35888671875000000000, 4145.12792968750000000000, 4165.12792968750000000000, 4131.28173828125000000000, 4145.64111328125000000000, 821.00000000000000000000, 2040.00000000000000000000, 2054.00000000000000000000, 0.00000000000000000000, 0.00000000000000000000, 1344.00000000000000000000, 224.00000000000000000000, 0.00000000000000000000, 4.00000000000000000000, 4.00000000000000000000, 4.00000000000000000000, 4.00000000000000000000, 0.00000000000000000000, 4.00000000000000000000, 1.00000000000000000000, 2.00000000000000000000, 4.00000000000000000000, 4.00000000000000000000, 4.00000000000000000000, 4.00000000000000000000, 4.00000000000000000000, 4.00000000000000000000, 4.00000000000000000000
5.00000000000000000000, 0.00000000000000000000, 4146.15380859375000000000, 4151.79492187500000000000, 4151.79492187500000000000, 4138.46142578125000000000, 4142.56396484375000000000, 4146.15380859375000000000, 4144.10253906250000000000, 4149.74365234375000000000, 4145.64111328125000000000, 4139.48730468750000000000, 4136.41015625000000000000, 4165.12792968750000000000, 4131.28173828125000000000, 4146.15380859375000000000, 795.00000000000000000000, 2040.00000000000000000000, 2055.00000000000000000000, 0.00000000000000000000, 0.00000000000000000000, 1344.00000000000000000000, 231.00000000000000000000, 0.00000000000000000000, 4.00000000000000000000, 4.00000000000000000000, 4.00000000000000000000, 4.00000000000000000000, 4.00000000000000000000, 4.00000000000000000000, 1.00000000000000000000, 2.00000000000000000000, 4.00000000000000000000, 4.00000000000000000000, 4.00000000000000000000, 4.00000000000000000000, 4.00000000000000000000, 4.00000000000000000000, 4.00000000000000000000
6.00000000000000000000, 0.00000000000000000000, 4149.23046875000000000000, 4165.64111328125000000000, 4152.30761718750000000000, 4153.33300781250000000000, 4163.58984375000000000000, 4148.20507812500000000000, 4149.23046875000000000000, 4154.35888671875000000000, 4147.17919921875000000000, 4155.89746093750000000000, 4146.66650390625000000000, 4164.61523437500000000000, 4139.48730468750000000000, 4151.79492187500000000000, 739.00000000000000000000, 2039.00000000000000000000, 2055.00000000000000000000, 0.00000000000000000000, 0.00000000000000000000, 1344.00000000000000000000, 238.00000000000000000000, 0.00000000000000000000, 4.00000000000000000000, 4.00000000000000000000, 4.00000000000000000000, 4.00000000000000000000, 4.00000000000000000000, 4.00000000000000000000, 1.00000000000000000000, 2.00000000000000000000, 4.00000000000000000000, 4.00000000000000000000, 4.00000000000000000000, 4.00000000000000000000, 4.00000000000000000000, 4.00000000000000000000, 4.00000000000000000000
7.00000000000000000000, 0.00000000000000000000, 4151.79492187500000000000, 4171.28173828125000000000, 4151.79492187500000000000, 4158.46142578125000000000, 4156.92285156250000000000, 4143.58984375000000000000, 4147.17919921875000000000, 4156.92285156250000000000, 4151.28173828125000000000, 4162.05126953125000000000, 4166.15380859375000000000, 4163.58984375000000000000, 4148.20507812500000000000, 4153.33300781250000000000, 105.00000000000000000000, 2039.00000000000000000000, 2055.00000000000000000000, 0.00000000000000000000, 0.00000000000000000000, 1344.00000000000000000000, 246.00000000000000000000, 0.00000000000000000000, 4.00000000000000000000, 4.00000000000000000000, 4.00000000000000000000, 4.00000000000000000000, 4.00000000000000000000, 4.00000000000000000000, 1.00000000000000000000, 2.00000000000000000000, 4.00000000000000000000, 4.00000000000000000000, 4.00000000000000000000, 4.00000000000000000000, 4.00000000000000000000, 4.00000000000000000000, 4.00000000000000000000
8.00000000000000000000, 0.00000000000000000000, 4146.15380859375000000000, 4160.51269531250000000000, 4152.30761718750000000000, 4149.74365234375000000000, 4127.17919921875000000000, 4146.66650390625000000000, 4145.64111328125000000000, 4151.79492187500000000000, 4150.25634765625000000000, 4149.23046875000000000000, 4163.07666015625000000000, 4157.94873046875000000000, 4145.64111328125000000000, 4148.71777343750000000000, 187.00000000000000000000, 2039.00000000000000000000, 2057.00000000000000000000, 0.00000000000000000000, 0.00000000000000000000, 1344.00000000000000000000, 253.00000000000000000000, 0.00000000000000000000, 4.00000000000000000000, 4.00000000000000000000, 4.00000000000000000000, 4.00000000000000000000, 4.00000000000000000000, 4.00000000000000000000, 1.00000000000000000000, 2.00000000000000000000, 4.00000000000000000000, 4.00000000000000000000, 4.00000000000000000000, 4.00000000000000000000, 4.00000000000000000000, 4.00000000000000000000, 4.00000000000000000000
9.00000000000000000000, 0.00000000000000000000, 4149.74365234375000000000, 4172.82031250000000000000, 4146.66650390625000000000, 4157.94873046875000000000, 4166.66650390625000000000, 4163.07666015625000000000, 4155.89746093750000000000, 4152.30761718750000000000, 4152.30761718750000000000, 4146.15380859375000000000, 4159.48730468750000000000, 4166.15380859375000000000, 4151.28173828125000000000, 4158.97412109375000000000, 838.00000000000000000000, 2039.00000000000000000000, 2056.00000000000000000000, 0.00000000000000000000, 0.00000000000000000000, 1344.00000000000000000000, 261.00000000000000000000, 0.00000000000000000000, 4.00000000000000000000, 4.00000000000000000000, 4.00000000000000000000, 4.00000000000000000000, 4.00000000000000000000, 4.00000000000000000000, 1.00000000000000000000, 2.00000000000000000000, 4.00000000000000000000, 4.00000000000000000000, 4.00000000000000000000, 4.00000000000000000000, 4.00000000000000000000, 4.00000000000000000000, 4.00000000000000000000
10.00000000000000000000, 0.00000000000000000000, 4154.87158203125000000000, 4182.56396484375000000000, 4146.66650390625000000000, 4162.05126953125000000000, 4189.74365234375000000000, 4170.25634765625000000000, 4158.97412109375000000000, 4157.43603515625000000000, 4153.33300781250000000000, 4154.35888671875000000000, 4162.56396484375000000000, 4172.82031250000000000000, 4157.43603515625000000000, 4162.56396484375000000000, 703.00000000000000000000, 2038.00000000000000000000, 2057.00000000000000000000, 0.00000000000000000000, 0.00000000000000000000, 1344.00000000000000000000, 268.00000000000000000000, 0.00000000000000000000, 4.00000000000000000000, 4.00000000000000000000, 4.00000000000000000000, 4.00000000000000000000, 4.00000000000000000000, 4.00000000000000000000, 1.00000000000000000000, 2.00000000000000000000, 4.00000000000000000000, 4.00000000000000000000, 4.00000000000000000000, 4.00000000000000000000, 4.00000000000000000000, 4.00000000000000000000, 4.00000000000000000000
11.00000000000000000000, 0.00000000000000000000, 4152.82031250000000000000, 4174.35888671875000000000, 4146.66650390625000000000, 4154.87158203125000000000, 4166.15380859375000000000, 4169.23046875000000000000, 4156.92285156250000000000, 4154.87158203125000000000, 4153.33300781250000000000, 4175.89746093750000000000, 4165.12792968750000000000, 4168.20507812500000000000, 4154.35888671875000000000, 4155.38427734375000000000, 795.00000000000000000000, 2040.00000000000000000000, 2056.00000000000000000000, 0.00000000000000000000, 0.00000000000000000000, 1344.00000000000000000000, 275.00000000000000000000, 0.00000000000000000000, 4.00000000000000000000, 4.00000000000000000000, 4.00000000000000000000, 4.00000000000000000000, 4.00000000000000000000, 4.00000000000000000000, 1.00000000000000000000, 2.00000000000000000000, 4.00000000000000000000, 4.00000000000000000000, 4.00000000000000000000, 4.00000000000000000000, 4.00000000000000000000, 4.00000000000000000000, 4.00000000000000000000
12.00000000000000000000, 0.00000000000000000000, 4153.33300781250000000000, 4169.23046875000000000000, 4151.28173828125000000000, 4154.35888671875000000000, 4165.12792968750000000000, 4160.51269531250000000000, 4156.92285156250000000000, 4152.30761718750000000000, 4151.79492187500000000000, 4172.82031250000000000000, 4160.51269531250000000000, 4169.23046875000000000000, 4148.20507812500000000000, 4156.41015625000000000000, 797.00000000000000000000, 2037.00000000000000000000, 2055.00000000000000000000, 0.00000000000000000000, 0.00000000000000000000, 1344.00000000000000000000, 283.00000000000000000000, 0.00000000000000000000, 4.00000000000000000000, 4.00000000000000000000, 4.00000000000000000000, 4.00000000000000000000, 4.00000000000000000000, 4.00000000000000000000, 1.00000000000000000000, 2.00000000000000000000, 4.00000000000000000000, 4.00000000000000000000, 4.00000000000000000000, 4.00000000000000000000, 4.00000000000000000000, 4.00000000000000000000, 4.00000000000000000000
13.00000000000000000000, 0.00000000000000000000, 4145.64111328125000000000, 4158.97412109375000000000, 4147.17919921875000000000, 4144.10253906250000000000, 4144.61523437500000000000, 4147.69238281250000000000, 4151.79492187500000000000, 4153.84619140625000000000, 4150.76904296875000000000, 4142.56396484375000000000, 4149.23046875000000000000, 4167.69238281250000000000, 4141.02539062500000000000, 4148.20507812500000000000, 696.00000000000000000000, 2038.00000000000000000000, 2056.00000000000000000000, 0.00000000000000000000, 0.00000000000000000000, 1344.00000000000000000000, 290.00000000000000000000, 0.00000000000000000000, 4.00000000000000000000, 4.00000000000000000000, 4.00000000000000000000, 4.00000000000000000000, 4.00000000000000000000, 4.00000000000000000000, 1.00000000000000000000, 2.00000000000000000000, 4.00000000000000000000, 4.00000000000000000000, 4.00000000000000000000, 4.00000000000000000000, 4.00000000000000000000, 4.00000000000000000000, 4.00000000000000000000
14.00000000000000000000, 0.00000000000000000000, 4148.20507812500000000000, 4157.43603515625000000000, 4154.35888671875000000000, 4142.56396484375000000000, 4130.76904296875000000000, 4156.92285156250000000000, 4159.48730468750000000000, 4154.35888671875000000000, 4152.82031250000000000000, 4158.97412109375000000000, 4160.00000000000000000000, 4168.20507812500000000000, 4149.74365234375000000000, 4153.33300781250000000000, 703.00000000000000000000, 2039.00000000000000000000, 2056.00000000000000000000, 0.00000000000000000000, 0.00000000000000000000, 1344.00000000000000000000, 298.00000000000000000000, 0.00000000000000000000, 4.00000000000000000000, 4.00000000000000000000, 4.00000000000000000000, 4.00000000000000000000, 4.00000000000000000000, 4.00000000000000000000, 1.00000000000000000000, 2.00000000000000000000, 4.00000000000000000000, 4.00000000000000000000, 4.00000000000000000000, 4.00000000000000000000, 4.00000000000000000000, 4.00000000000000000000, 4.00000000000000000000
15.00000000000000000000, 0.00000000000000000000, 4156.92285156250000000000, 4164.61523437500000000000, 4150.76904296875000000000, 4152.82031250000000000000, 4163.58984375000000000000, 4166.15380859375000000000, 4168.20507812500000000000, 4151.28173828125000000000, 4152.82031250000000000000, 4173.33300781250000000000, 4168.20507812500000000000, 4172.82031250000000000000, 4156.41015625000000000000, 4168.71777343750000000000, 795.00000000000000000000, 2038.00000000000000000000, 2056.00000000000000000000, 0.00000000000000000000, 0.00000000000000000000, 1344.00000000000000000000, 305.00000000000000000000, 0.00000000000000000000, 4.00000000000000000000, 4.00000000000000000000, 4.00000000000000000000, 4.00000000000000000000, 4.00000000000000000000, 4.00000000000000000000, 1.00000000000000000000, 2.00000000000000000000, 4.00000000000000000000, 4.00000000000000000000, 4.00000000000000000000, 4.00000000000000000000, 4.00000000000000000000, 4.00000000000000000000, 4.00000000000000000000
16.00000000000000000000, 0.00000000000000000000, 4154.87158203125000000000, 4160.00000000000000000000, 4154.87158203125000000000, 4149.74365234375000000000, 4163.07666015625000000000, 4158.97412109375000000000, 4159.48730468750000000000, 4153.84619140625000000000, 4152.82031250000000000000, 4140.00000000000000000000, 4154.35888671875000000000, 4171.28173828125000000000, 4145.12792968750000000000, 4158.46142578125000000000, 0.00000000000000000000, 2039.00000000000000000000, 2055.00000000000000000000, 0.00000000000000000000, 0.00000000000000000000, 1344.00000000000000000000, 313.00000000000000000000, 0.00000000000000000000, 4.00000000000000000000, 4.00000000000000000000, 4.00000000000000000000, 4.00000000000000000000, 4.00000000000000000000, 4.00000000000000000000, 1.00000000000000000000, 2.00000000000000000000, 4.00000000000000000000, 4.00000000000000000000, 4.00000000000000000000, 4.00000000000000000000, 4.00000000000000000000, 4.00000000000000000000, 4.00000000000000000000
17.00000000000000000000, 0.00000000000000000000, 4150.25634765625000000000, 4161.02539062500000000000, 4146.15380859375000000000, 4146.66650390625000000000, 4151.79492187500000000000, 4161.53857421875000000000, 4156.41015625000000000000, 4154.35888671875000000000, 4153.33300781250000000000, 4140.00000000000000000000, 4157.94873046875000000000, 4162.05126953125000000000, 4143.58984375000000000000, 4150.25634765625000000000, 0.00000000000000000000, 2038.00000000000000000000, 2056.00000000000000000000, 0.00000000000000000000, 0.00000000000000000000, 1344.00000000000000000000, 320.00000000000000000000, 0.00000000000000000000, 4.00000000000000000000, 4.00000000000000000000, 4.00000000000000000000, 4.00000000000000000000, 4.00000000000000000000, 4.00000000000000000000, 1.00000000000000000000, 2.00000000000000000000, 4.00000000000000000000, 4.00000000000000000000, 4.00000000000000000000, 4.00000000000000000000, 4.00000000000000000000, 4.00000000000000000000, 4.00000000000000000000
18.00000000000000000000, 0.00000000000000000000, 4158.97412109375000000000, 4177.43603515625000000000, 4151.79492187500000000000, 4160.51269531250000000000, 4172.30761718750000000000, 4175.89746093750000000000, 4167.69238281250000000000, 4156.41015625000000000000, 4153.84619140625000000000, 4169.74365234375000000000, 4174.35888671875000000000, 4167.17919921875000000000, 4155.38427734375000000000, 4167.17919921875000000000, 0.00000000000000000000, 2039.00000000000000000000, 2057.00000000000000000000, 0.00000000000000000000, 0.00000000000000000000, 1344.00000000000000000000, 327.00000000000000000000, 0.00000000000000000000, 4.00000000000000000000, 4.00000000000000000000, 4.00000000000000000000, 4.00000000000000000000, 4.00000000000000000000, 4.00000000000000000000, 1.00000000000000000000, 2.00000000000000000000, 4.00000000000000000000, 4.00000000000000000000, 4.00000000000000000000, 4.00000000000000000000, 4.00000000000000000000, 4.00000000000000000000, 4.00000000000000000000
19.00000000000000000000, 0.00000000000000000000, 4159.48730468750000000000, 4178.97412109375000000000, 4147.69238281250000000000, 4161.53857421875000000000, 4156.92285156250000000000, 4171.28173828125000000000, 4163.07666015625000000000, 4156.41015625000000000000, 4151.28173828125000000000, 4171.28173828125000000000, 4164.10253906250000000000, 4171.79492187500000000000, 4153.84619140625000000000, 4168.71777343750000000000, 0.00000000000000000000, 2041.00000000000000000000, 2056.00000000000000000000, 0.00000000000000000000, 0.00000000000000000000, 1344.00000000000000000000, 335.00000000000000000000, 0.00000000000000000000, 4.00000000000000000000, 4.00000000000000000000, 4.00000000000000000000, 4.00000000000000000000, 4.00000000000000000000, 4.00000000000000000000, 1.00000000000000000000, 2.00000000000000000000, 4.00000000000000000000, 4.00000000000000000000, 4.00000000000000000000, 4.00000000000000000000, 4.00000000000000000000, 4.00000000000000000000, 4.00000000000000000000
20.00000000000000000000, 0.00000000000000000000, 4151.28173828125000000000, 4163.07666015625000000000, 4150.25634765625000000000, 4149.23046875000000000000, 4137.94873046875000000000, 4150.25634765625000000000, 4146.66650390625000000000, 4155.89746093750000000000, 4151.28173828125000000000, 4158.97412109375000000000, 4148.20507812500000000000, 4165.64111328125000000000, 4143.07666015625000000000, 4150.25634765625000000000, 0.00000000000000000000, 2041.00000000000000000000, 2057.00000000000000000000, 0.00000000000000000000, 0.00000000000000000000, 1344.00000000000000000000, 342.00000000000000000000, 0.00000000000000000000, 4.00000000000000000000, 4.00000000000000000000, 4.00000000000000000000, 4.00000000000000000000, 4.00000000000000000000, 4.00000000000000000000, 1.00000000000000000000, 2.00000000000000000000, 4.00000000000000000000, 4.00000000000000000000, 4.00000000000000000000, 4.00000000000000000000, 4.00000000000000000000, 4.00000000000000000000, 4.00000000000000000000
21.00000000000000000000, 0.00000000000000000000, 4149.23046875000000000000, 4160.00000000000000000000, 4144.10253906250000000000, 4150.76904296875000000000, 4165.12792968750000000000, 4146.66650390625000000000, 4146.15380859375000000000, 4154.87158203125000000000, 4153.84619140625000000000, 4150.76904296875000000000, 4153.33300781250000000000, 4164.10253906250000000000, 4140.51269531250000000000, 4151.79492187500000000000, 0.00000000000000000000, 2040.00000000000000000000, 2058.00000000000000000000, 0.00000000000000000000, 0.00000000000000000000, 1344.00000000000000000000, 350.00000000000000000000, 0.00000000000000000000, 4.00000000000000000000, 4.00000000000000000000, 4.00000000000000000000, 4.00000000000000000000, 4.00000000000000000000, 4.00000000000000000000, 1.00000000000000000000, 2.00000000000000000000, 4.00000000000000000000, 4.00000000000000000000, 4.00000000000000000000, 4.00000000000000000000, 4.00000000000000000000, 4.00000000000000000000, 4.00000000000000000000
22.00000000000000000000, 0.00000000000000000000, 4156.92285156250000000000, 4171.79492187500000000000, 4149.23046875000000000000, 4160.51269531250000000000, 4185.12792968750000000000, 4165.12792968750000000000, 4156.41015625000000000000, 4154.87158203125000000000, 4154.35888671875000000000, 4149.74365234375000000000, 4162.05126953125000000000, 4175.89746093750000000000, 4148.71777343750000000000, 4170.25634765625000000000, 0.00000000000000000000, 2040.00000000000000000000, 2057.00000000000000000000, 0.00000000000000000000, 0.00000000000000000000, 1344.00000000000000000000, 357.00000000000000000000, 0.00000000000000000000, 4.00000000000000000000, 4.00000000000000000000, 4.00000000000000000000, 4.00000000000000000000, 4.00000000000000000000, 4.00000000000000000000, 1.00000000000000000000, 2.00000000000000000000, 4.00000000000000000000, 4.00000000000000000000, 4.00000000000000000000, 4.00000000000000000000, 4.00000000000000000000, 4.00000000000000000000, 4.00000000000000000000
23.00000000000000000000, 0.00000000000000000000, 4154.35888671875000000000, 4173.84619140625000000000, 4150.25634765625000000000, 4154.35888671875000000000, 4162.05126953125000000000, 4169.23046875000000000000, 4156.41015625000000000000, 4151.28173828125000000000, 4155.89746093750000000000, 4165.12792968750000000000, 4160.00000000000000000000, 4175.38427734375000000000, 4152.30761718750000000000, 4165.64111328125000000000, 0.00000000000000000000, 2039.00000000000000000000, 2057.00000000000000000000, 0.00000000000000000000, 0.00000000000000000000, 1344.00000000000000000000, 364.00000000000000000000, 0.00000000000000000000, 4.00000000000000000000, 4.00000000000000000000, 4.00000000000000000000, 4.00000000000000000000, 4.00000000000000000000, 4.00000000000000000000, 1.00000000000000000000, 2.00000000000000000000, 4.00000000000000000000, 4.00000000000000000000, 4.00000000000000000000, 4.00000000000000000000, 4.00000000000000000000, 4.00000000000000000000, 4.00000000000000000000
24.00000000000000000000, 0.00000000000000000000, 4141.02539062500000000000, 4151.28173828125000000000, 4150.25634765625000000000, 4134.35888671875000000000, 4124.10253906250000000000, 4143.58984375000000000000, 4143.58984375000000000000, 4147.69238281250000000000, 4151.28173828125000000000, 4158.46142578125000000000, 4146.66650390625000000000, 4154.87158203125000000000, 4137.94873046875000000000, 4143.58984375000000000000, 0.00000000000000000000, 2040.00000000000000000000, 2057.00000000000000000000, 0.00000000000000000000, 0.00000000000000000000, 1344.00000000000000000000, 372.00000000000000000000, 0.00000000000000000000, 4.00000000000000000000, 4.00000000000000000000, 4.00000000000000000000, 4.00000000000000000000, 4.00000000000000000000, 4.00000000000000000000, 1.00000000000000000000, 2.00000000000000000000, 4.00000000000000000000, 4.00000000000000000000, 4.00000000000000000000, 4.00000000000000000000, 4.00000000000000000000, 4.00000000000000000000, 4.00000000000000000000
25.00000000000000000000, 0.00000000000000000000, 4148.20507812500000000000, 4152.30761718750000000000, 4147.17919921875000000000, 4139.48730468750000000000, 4137.43603515625000000000, 4145.64111328125000000000, 4143.58984375000000000000, 4150.25634765625000000000, 4145.64111328125000000000, 4150.25634765625000000000, 4148.20507812500000000000, 4155.38427734375000000000, 4136.41015625000000000000, 4149.74365234375000000000, 0.00000000000000000000, 2041.00000000000000000000, 2059.00000000000000000000, 0.00000000000000000000, 0.00000000000000000000, 1344.00000000000000000000, 379.00000000000000000000, 0.00000000000000000000, 4.00000000000000000000, 4.00000000000000000000, 4.00000000000000000000, 4.00000000000000000000, 4.00000000000000000000, 4.00000000000000000000, 1.00000000000000000000, 2.00000000000000000000, 4.00000000000000000000, 4.00000000000000000000, 4.00000000000000000000, 4.00000000000000000000, 4.00000000000000000000, 4.00000000000000000000, 4.00000000000000000000
26.00000000000000000000, 0.00000000000000000000, 4164.61523437500000000000, 4181.02539062500000000000, 4148.20507812500000000000, 4161.02539062500000000000, 4172.82031250000000000000, 4169.23046875000000000000, 4156.92285156250000000000, 4151.79492187500000000000, 4149.23046875000000000000, 4164.61523437500000000000, 4166.66650390625000000000, 4174.87158203125000000000, 4156.41015625000000000000, 4169.74365234375000000000, 0.00000000000000000000, 2040.00000000000000000000, 2058.00000000000000000000, 0.00000000000000000000, 0.00000000000000000000, 1344.00000000000000000000, 387.00000000000000000000, 0.00000000000000000000, 4.00000000000000000000, 4.00000000000000000000, 4.00000000000000000000, 4.00000000000000000000, 4.00000000000000000000, 4.00000000000000000000, 1.00000000000000000000, 2.00000000000000000000, 4.00000000000000000000, 4.00000000000000000000, 4.00000000000000000000, 4.00000000000000000000, 4.00000000000000000000, 4.00000000000000000000, 4.00000000000000000000
27.00000000000000000000, 0.00000000000000000000, 4153.33300781250000000000, 4178.97412109375000000000, 4150.25634765625000000000, 4157.94873046875000000000, 4155.89746093750000000000, 4157.94873046875000000000, 4153.84619140625000000000, 4149.23046875000000000000, 4153.84619140625000000000, 4156.92285156250000000000, 4160.51269531250000000000, 4172.30761718750000000000, 4153.33300781250000000000, 4161.53857421875000000000, 0.00000000000000000000, 2040.00000000000000000000, 2058.00000000000000000000, 0.00000000000000000000, 0.00000000000000000000, 1344.00000000000000000000, 394.00000000000000000000, 0.00000000000000000000, 4.00000000000000000000, 4.00000000000000000000, 4.00000000000000000000, 4.00000000000000000000, 4.00000000000000000000, 4.00000000000000000000, 1.00000000000000000000, 2.00000000000000000000, 4.00000000000000000000, 4.00000000000000000000, 4.00000000000000000000, 4.00000000000000000000, 4.00000000000000000000, 4.00000000000000000000, 4.00000000000000000000
28.00000000000000000000, 0.00000000000000000000, 4138.97412109375000000000, 4161.02539062500000000000, 4148.20507812500000000000, 4148.20507812500000000000, 4143.58984375000000000000, 4148.71777343750000000000, 4146.66650390625000000000, 4149.74365234375000000000, 4149.23046875000000000000, 4147.17919921875000000000, 4143.58984375000000000000, 4157.94873046875000000000, 4133.33300781250000000000, 4149.23046875000000000000, 0.00000000000000000000, 2040.00000000000000000000, 2060.00000000000000000000, 0.00000000000000000000, 0.00000000000000000000, 1344.00000000000000000000, 401.00000000000000000000, 0.00000000000000000000, 4.00000000000000000000, 4.00000000000000000000, 4.00000000000000000000, 4.00000000000000000000, 4.00000000000000000000, 4.00000000000000000000, 1.00000000000000000000, 2.00000000000000000000, 4.00000000000000000000, 4.00000000000000000000, 4.00000000000000000000, 4.00000000000000000000, 4.00000000000000000000, 4.00000000000000000000, 4.00000000000000000000
29.00000000000000000000, 0.00000000000000000000, 4145.64111328125000000000, 4161.02539062500000000000, 4152.82031250000000000000, 4150.25634765625000000000, 4165.64111328125000000000, 4160.51269531250000000000, 4150.25634765625000000000, 4151.28173828125000000000, 4145.12792968750000000000, 4143.58984375000000000000, 4140.51269531250000000000, 4156.41015625000000000000, 4129.74365234375000000000, 4148.71777343750000000000, 0.00000000000000000000, 2039.00000000000000000000, 2060.00000000000000000000, 0.00000000000000000000, 0.00000000000000000000, 1344.00000000000000000000, 409.00000000000000000000, 0.00000000000000000000, 4.00000000000000000000, 4.00000000000000000000, 4.00000000000000000000, 4.00000000000000000000, 4.00000000000000000000, 4.00000000000000000000, 1.00000000000000000000, 2.00000000000000000000, 4.00000000000000000000, 4.00000000000000000000, 4.00000000000000000000, 4.00000000000000000000, 4.00000000000000000000, 4.00000000000000000000, 4.00000000000000000000
30.00000000000000000000, 0.00000000000000000000, 4153.84619140625000000000, 4171.79492187500000000000, 4149.23046875000000000000, 4153.33300781250000000000, 4171.28173828125000000000, 4163.58984375000000000000, 4155.38427734375000000000, 4151.79492187500000000000, 4150.25634765625000000000, 4131.79492187500000000000, 4149.23046875000000000000, 4162.05126953125000000000, 4142.05126953125000000000, 4152.82031250000000000000, 0.00000000000000000000, 2039.00000000000000000000, 2059.00000000000000000000, 0.00000000000000000000, 0.00000000000000000000, 1344.00000000000000000000, 416.00000000000000000000, 0.00000000000000000000, 4.00000000000000000000, 4.00000000000000000000, 4.00000000000000000000, 4.00000000000000000000, 4.00000000000000000000, 4.00000000000000000000, 1.00000000000000000000, 2.00000000000000000000, 4.00000000000000000000, 4.00000000000000000000, 4.00000000000000000000, 4.00000000000000000000, 4.00000000000000000000, 4.00000000000000000000, 4.00000000000000000000
31.00000000000000000000, 0.00000000000000000000, 4154.87158203125000000000, 4175.38427734375000000000, 4150.76904296875000000000, 4153.33300781250000000000, 4166.15380859375000000000, 4157.94873046875000000000, 4155.89746093750000000000, 4152.82031250000000000000, 4152.82031250000000000000, 4132.30761718750000000000, 4153.33300781250000000000, 4169.23046875000000000000, 4148.20507812500000000000, 4157.43603515625000000000, 0.00000000000000000000, 2040.00000000000000000000, 2059.00000000000000000000, 0.00000000000000000000, 0.00000000000000000000, 1344.00000000000000000000, 424.00000000000000000000, 0.00000000000000000000, 4.00000000000000000000, 4.00000000000000000000, 4.00000000000000000000, 4.00000000000000000000, 4.00000000000000000000, 4.00000000000000000000, 1.00000000000000000000, 2.00000000000000000000, 4.00000000000000000000, 4.00000000000000000000, 4.00000000000000000000, 4.00000000000000000000, 4.00000000000000000000, 4.00000000000000000000, 4.00000000000000000000
32.00000000000000000000, 0.00000000000000000000, 4154.35888671875000000000, 4171.79492187500000000000, 4145.64111328125000000000, 4152.30761718750000000000, 4147.17919921875000000000, 4163.07666015625000000000, 4154.87158203125000000000, 4152.30761718750000000000, 4151.28173828125000000000, 4144.61523437500000000000, 4153.33300781250000000000, 4167.17919921875000000000, 4147.17919921875000000000, 4157.43603515625000000000, 0.00000000000000000000, 2039.00000000000000000000, 2058.00000000000000000000, 0.00000000000000000000, 0.00000000000000000000, 1344.00000000000000000000, 431.00000000000000000000, 0.00000000000000000000, 4.00000000000000000000, 4.00000000000000000000, 4.00000000000000000000, 4.00000000000000000000, 4.00000000000000000000, 4.00000000000000000000, 1.00000000000000000000, 2.00000000000000000000, 4.00000000000000000000, 4.00000000000000000000, 4.00000000000000000000, 4.00000000000000000000, 4.00000000000000000000, 4.00000000000000000000, 4.00000000000000000000
33.00000000000000000000, 0.00000000000000000000, 4158.46142578125000000000, 4170.25634765625000000000, 4150.76904296875000000000, 4152.82031250000000000000, 4121.02539062500000000000, 4164.10253906250000000000, 4154.35888671875000000000, 4152.82031250000000000000, 4151.79492187500000000000, 4152.82031250000000000000, 4162.56396484375000000000, 4164.61523437500000000000, 4151.28173828125000000000, 4160.51269531250000000000, 0.00000000000000000000, 2037.00000000000000000000, 2058.00000000000000000000, 0.00000000000000000000, 0.00000000000000000000, 1344.00000000000000000000, 438.00000000000000000000, 0.00000000000000000000, 4.00000000000000000000, 4.00000000000000000000, 4.00000000000000000000, 4.00000000000000000000, 4.00000000000000000000, 4.00000000000000000000, 1.00000000000000000000, 2.00000000000000000000, 4.00000000000000000000, 4.00000000000000000000, 4.00000000000000000000, 4.00000000000000000000, 4.00000000000000000000, 4.00000000000000000000, 4.00000000000000000000
34.00000000000000000000, 0.00000000000000000000, 4162.05126953125000000000, 4179.48730468750000000000, 4145.64111328125000000000, 4164.61523437500000000000, 4151.28173828125000000000, 4159.48730468750000000000, 4156.92285156250000000000, 4150.76904296875000000000, 4154.87158203125000000000, 4162.05126953125000000000, 4169.74365234375000000000, 4174.87158203125000000000, 4163.58984375000000000000, 4173.33300781250000000000, 0.00000000000000000000, 2039.00000000000000000000, 2060.00000000000000000000, 0.00000000000000000000, 0.00000000000000000000, 1344.00000000000000000000, 446.00000000000000000000, 0.00000000000000000000, 4.00000000000000000000, 4.00000000000000000000, 4.00000000000000000000, 4.00000000000000000000, 4.00000000000000000000, 4.00000000000000000000, 1.00000000000000000000, 2.00000000000000000000, 4.00000000000000000000, 4.00000000000000000000, 4.00000000000000000000, 4.00000000000000000000, 4.00000000000000000000, 4.00000000000000000000, 4.00000000000000000000
35.00000000000000000000, 0.00000000000000000000, 4164.10253906250000000000, 4187.17919921875000000000, 4151.28173828125000000000, 4173.33300781250000000000, 4192.82031250000000000000, 4162.56396484375000000000, 4158.97412109375000000000, 4152.30761718750000000000, 4154.35888671875000000000, 4168.71777343750000000000, 4164.61523437500000000000, 4184.10253906250000000000, 4168.71777343750000000000, 4178.46142578125000000000, 0.00000000000000000000, 2038.00000000000000000000, 2058.00000000000000000000, 0.00000000000000000000, 0.00000000000000000000, 1344.00000000000000000000, 453.00000000000000000000, 0.00000000000000000000, 4.00000000000000000000, 4.00000000000000000000, 4.00000000000000000000, 4.00000000000000000000, 4.00000000000000000000, 4.00000000000000000000, 1.00000000000000000000, 2.00000000000000000000, 4.00000000000000000000, 4.00000000000000000000, 4.00000000000000000000, 4.00000000000000000000, 4.00000000000000000000, 4.00000000000000000000, 4.00000000000000000000
36.00000000000000000000, 0.00000000000000000000, 4153.84619140625000000000, 4180.51269531250000000000, 4146.15380859375000000000, 4163.07666015625000000000, 4181.02539062500000000000, 4158.97412109375000000000, 4153.84619140625000000000, 4152.82031250000000000000, 4151.28173828125000000000, 4161.53857421875000000000, 4157.94873046875000000000, 4174.87158203125000000000, 4160.51269531250000000000, 4167.17919921875000000000, 0.00000000000000000000, 2038.00000000000000000000, 2058.00000000000000000000, 0.00000000000000000000, 0.00000000000000000000, 1344.00000000000000000000, 461.00000000000000000000, 0.00000000000000000000, 4.00000000000000000000, 4.00000000000000000000, 4.00000000000000000000, 4.00000000000000000000, 4.00000000000000000000, 4.00000000000000000000, 1.00000000000000000000, 2.00000000000000000000, 4.00000000000000000000, 4.00000000000000000000, 4.00000000000000000000, 4.00000000000000000000, 4.00000000000000000000, 4.00000000000000000000, 4.00000000000000000000
37.00000000000000000000, 0.00000000000000000000, 4149.74365234375000000000, 4172.30761718750000000000, 4150.76904296875000000000, 4151.79492187500000000000, 4148.71777343750000000000, 4151.79492187500000000000, 4150.25634765625000000000, 4153.84619140625000000000, 4151.28173828125000000000, 4149.23046875000000000000, 4160.00000000000000000000, 4169.74365234375000000000, 4149.23046875000000000000, 4158.46142578125000000000, 0.00000000000000000000, 2038.00000000000000000000, 2056.00000000000000000000, 0.00000000000000000000, 0.00000000000000000000, 1344.00000000000000000000, 468.00000000000000000000, 0.00000000000000000000, 4.00000000000000000000, 4.00000000000000000000, 4.00000000000000000000, 4.00000000000000000000, 4.00000000000000000000, 4.00000000000000000000, 1.00000000000000000000, 2.00000000000000000000, 4.00000000000000000000, 4.00000000000000000000, 4.00000000000000000000, 4.00000000000000000000, 4.00000000000000000000, 4.00000000000000000000, 4.00000000000000000000
38.00000000000000000000, 0.00000000000000000000, 4155.89746093750000000000, 4172.30761718750000000000, 4144.10253906250000000000, 4153.33300781250000000000, 4140.51269531250000000000, 4151.28173828125000000000, 4152.82031250000000000000, 4154.35888671875000000000, 4152.82031250000000000000, 4135.38427734375000000000, 4163.07666015625000000000, 4170.76904296875000000000, 4150.25634765625000000000, 4159.48730468750000000000, 0.00000000000000000000, 2039.00000000000000000000, 2056.00000000000000000000, 0.00000000000000000000, 0.00000000000000000000, 1344.00000000000000000000, 475.00000000000000000000, 0.00000000000000000000, 4.00000000000000000000, 4.00000000000000000000, 4.00000000000000000000, 4.00000000000000000000, 4.00000000000000000000, 4.00000000000000000000, 1.00000000000000000000, 2.00000000000000000000, 4.00000000000000000000, 4.00000000000000000000, 4.00000000000000000000, 4.00000000000000000000, 4.00000000000000000000, 4.00000000000000000000, 4.00000000000000000000
39.00000000000000000000, 0.00000000000000000000, 4157.94873046875000000000, 4173.33300781250000000000, 4148.20507812500000000000, 4155.38427734375000000000, 4155.89746093750000000000, 4148.20507812500000000000, 4154.87158203125000000000, 4153.84619140625000000000, 4152.82031250000000000000, 4137.43603515625000000000, 4156.41015625000000000000, 4167.69238281250000000000, 4154.87158203125000000000, 4160.51269531250000000000, 0.00000000000000000000, 2039.00000000000000000000, 2056.00000000000000000000, 0.00000000000000000000, 0.00000000000000000000, 1344.00000000000000000000, 483.00000000000000000000, 0.00000000000000000000, 4.00000000000000000000, 4.00000000000000000000, 4.00000000000000000000, 4.00000000000000000000, 4.00000000000000000000, 4.00000000000000000000, 1.00000000000000000000, 2.00000000000000000000, 4.00000000000000000000, 4.00000000000000000000, 4.00000000000000000000, 4.00000000000000000000, 4.00000000000000000000, 4.00000000000000000000, 4.00000000000000000000
40.00000000000000000000, 0.00000000000000000000, 4149.74365234375000000000, 4168.20507812500000000000, 4146.15380859375000000000, 4149.74365234375000000000, 4157.43603515625000000000, 4152.82031250000000000000, 4153.84619140625000000000, 4151.28173828125000000000, 4150.76904296875000000000, 4154.35888671875000000000, 4147.69238281250000000000, 4163.07666015625000000000, 4145.64111328125000000000, 4154.35888671875000000000, 0.00000000000000000000, 2039.00000000000000000000, 2056.00000000000000000000, 0.00000000000000000000, 0.00000000000000000000, 1344.00000000000000000000, 490.00000000000000000000, 0.00000000000000000000, 4.00000000000000000000, 4.00000000000000000000, 4.00000000000000000000, 4.00000000000000000000, 4.00000000000000000000, 4.00000000000000000000, 1.00000000000000000000, 2.00000000000000000000, 4.00000000000000000000, 4.00000000000000000000, 4.00000000000000000000, 4.00000000000000000000, 4.00000000000000000000, 4.00000000000000000000, 4.00000000000000000000
41.00000000000000000000, 0.00000000000000000000, 4147.69238281250000000000, 4165.64111328125000000000, 4150.25634765625000000000, 4147.69238281250000000000, 4143.07666015625000000000, 4164.10253906250000000000, 4153.84619140625000000000, 4150.76904296875000000000, 4149.23046875000000000000, 4153.33300781250000000000, 4150.25634765625000000000, 4163.58984375000000000000, 4139.48730468750000000000, 4151.79492187500000000000, 0.00000000000000000000, 2039.00000000000000000000, 2055.00000000000000000000, 0.00000000000000000000, 0.00000000000000000000, 1344.00000000000000000000, 498.00000000000000000000, 0.00000000000000000000, 4.00000000000000000000, 4.00000000000000000000, 4.00000000000000000000, 4.00000000000000000000, 4.00000000000000000000, 4.00000000000000000000, 1.00000000000000000000, 2.00000000000000000000, 4.00000000000000000000, 4.00000000000000000000, 4.00000000000000000000, 4.00000000000000000000, 4.00000000000000000000, 4.00000000000000000000, 4.00000000000000000000
42.00000000000000000000, 0.00000000000000000000, 4151.28173828125000000000, 4170.25634765625000000000, 4148.20507812500000000000, 4156.41015625000000000000, 4147.17919921875000000000, 4162.05126953125000000000, 4154.87158203125000000000, 4150.76904296875000000000, 4148.71777343750000000000, 4145.12792968750000000000, 4159.48730468750000000000, 4167.17919921875000000000, 4151.28173828125000000000, 4158.46142578125000000000, 0.00000000000000000000, 2040.00000000000000000000, 2054.00000000000000000000, 0.00000000000000000000, 0.00000000000000000000, 1344.00000000000000000000, 505.00000000000000000000, 0.00000000000000000000, 4.00000000000000000000, 4.00000000000000000000, 4.00000000000000000000, 4.00000000000000000000, 4.00000000000000000000, 4.00000000000000000000, 1.00000000000000000000, 2.00000000000000000000, 4.00000000000000000000, 4.00000000000000000000, 4.00000000000000000000, 4.00000000000000000000, 4.00000000000000000000, 4.00000000000000000000, 4.00000000000000000000
43.00000000000000000000, 0.00000000000000000000, 4146.66650390625000000000, 4164.10253906250000000000, 4150.25634765625000000000, 4152.82031250000000000000, 4146.15380859375000000000, 4146.66650390625000000000, 4148.20507812500000000000, 4147.69238281250000000000, 4150.76904296875000000000, 4135.89746093750000000000, 4145.12792968750000000000, 4162.56396484375000000000, 4150.76904296875000000000, 4153.84619140625000000000, 0.00000000000000000000, 2041.00000000000000000000, 2054.00000000000000000000, 0.00000000000000000000, 0.00000000000000000000, 1344.00000000000000000000, 512.00000000000000000000, 0.00000000000000000000, 4.00000000000000000000, 4.00000000000000000000, 4.00000000000000000000, 4.00000000000000000000, 4.00000000000000000000, 4.00000000000000000000, 1.00000000000000000000, 2.00000000000000000000, 4.00000000000000000000, 4.00000000000000000000, 4.00000000000000000000, 4.00000000000000000000, 4.00000000000000000000, 4.00000000000000000000, 4.00000000000000000000
44.00000000000000000000, 0.00000000000000000000, 4143.58984375000000000000, 4157.43603515625000000000, 4147.69238281250000000000, 4144.61523437500000000000, 4141.53857421875000000000, 4142.05126953125000000000, 4144.10253906250000000000, 4147.17919921875000000000, 4152.30761718750000000000, 4127.17919921875000000000, 4136.92285156250000000000, 4162.56396484375000000000, 4140.00000000000000000000, 4150.76904296875000000000, 0.00000000000000000000, 2040.00000000000000000000, 2055.00000000000000000000, 0.00000000000000000000, 0.00000000000000000000, 1344.00000000000000000000, 520.00000000000000000000, 0.00000000000000000000, 4.00000000000000000000, 4.00000000000000000000, 4.00000000000000000000, 4.00000000000000000000, 4.00000000000000000000, 4.00000000000000000000, 1.00000000000000000000, 2.00000000000000000000, 4.00000000000000000000, 4.00000000000000000000, 4.00000000000000000000, 4.00000000000000000000, 4.00000000000000000000, 4.00000000000000000000, 4.00000000000000000000
45.00000000000000000000, 0.00000000000000000000, 4153.33300781250000000000, 4171.28173828125000000000, 4147.17919921875000000000, 4156.92285156250000000000, 4156.92285156250000000000, 4151.28173828125000000000, 4152.82031250000000000000, 4152.30761718750000000000, 4151.79492187500000000000, 4129.23046875000000000000, 4158.46142578125000000000, 4173.33300781250000000000, 4150.25634765625000000000, 4164.10253906250000000000, 0.00000000000000000000, 2040.00000000000000000000, 2056.00000000000000000000, 0.00000000000000000000, 0.00000000000000000000, 1344.00000000000000000000, 527.00000000000000000000, 0.00000000000000000000, 4.00000000000000000000, 4.00000000000000000000, 4.00000000000000000000, 4.00000000000000000000, 4.00000000000000000000, 4.00000000000000000000, 1.00000000000000000000, 2.00000000000000000000, 4.00000000000000000000, 4.00000000000000000000, 4.00000000000000000000, 4.00000000000000000000, 4.00000000000000000000, 4.00000000000000000000, 4.00000000000000000000
46.00000000000000000000, 0.00000000000000000000, 4160.51269531250000000000, 4182.05126953125000000000, 4152.82031250000000000000, 4166.15380859375000000000, 4159.48730468750000000000, 4154.35888671875000000000, 4157.43603515625000000000, 4155.89746093750000000000, 4152.82031250000000000000, 4144.10253906250000000000, 4166.66650390625000000000, 4180.51269531250000000000, 4164.61523437500000000000, 4174.35888671875000000000, 0.00000000000000000000, 2039.00000000000000000000, 2056.00000000000000000000, 0.00000000000000000000, 0.00000000000000000000, 1344.00000000000000000000, 535.00000000000000000000, 0.00000000000000000000, 4.00000000000000000000, 4.00000000000000000000, 4.00000000000000000000, 4.00000000000000000000, 4.00000000000000000000, 4.00000000000000000000, 1.00000000000000000000, 2.00000000000000000000, 4.00000000000000000000, 4.00000000000000000000, 4.00000000000000000000, 4.00000000000000000000, 4.00000000000000000000, 4.00000000000000000000, 4.00000000000000000000
47.00000000000000000000, 0.00000000000000000000, 4156.41015625000000000000, 4174.35888671875000000000, 4150.25634765625000000000, 4155.89746093750000000000, 4149.23046875000000000000, 4157.43603515625000000000, 4153.33300781250000000000, 4152.30761718750000000000, 4154.35888671875000000000, 4168.71777343750000000000, 4160.51269531250000000000, 4175.89746093750000000000, 4161.53857421875000000000, 4171.79492187500000000000, 0.00000000000000000000, 2036.00000000000000000000, 2057.00000000000000000000, 0.00000000000000000000, 0.00000000000000000000, 1344.00000000000000000000, 542.00000000000000000000, 0.00000000000000000000, 4.00000000000000000000, 4.00000000000000000000, 4.00000000000000000000, 4.00000000000000000000, 4.00000000000000000000, 4.00000000000000000000, 1.00000000000000000000, 2.00000000000000000000, 4.00000000000000000000, 4.00000000000000000000, 4.00000000000000000000, 4.00000000000000000000, 4.00000000000000000000, 4.00000000000000000000, 4.00000000000000000000
48.00000000000000000000, 0.00000000000000000000, 4153.84619140625000000000, 4167.69238281250000000000, 4151.28173828125000000000, 4150.25634765625000000000, 4164.61523437500000000000, 4160.51269531250000000000, 4154.35888671875000000000, 4151.79492187500000000000, 4155.89746093750000000000, 4163.07666015625000000000, 4161.53857421875000000000, 4172.82031250000000000000, 4157.43603515625000000000, 4167.17919921875000000000, 0.00000000000000000000, 2037.00000000000000000000, 2058.00000000000000000000, 0.00000000000000000000, 0.00000000000000000000, 1344.00000000000000000000, 549.00000000000000000000, 0.00000000000000000000, 4.00000000000000000000, 4.00000000000000000000, 4.00000000000000000000, 4.00000000000000000000, 4.00000000000000000000, 4.00000000000000000000, 1.00000000000000000000, 2.00000000000000000000, 4.00000000000000000000, 4.00000000000000000000, 4.00000000000000000000, 4.00000000000000000000, 4.00000000000000000000, 4.00000000000000000000, 4.00000000000000000000
49.00000000000000000000, 0.00000000000000000000, 4148.20507812500000000000, 4160.51269531250000000000, 4147.17919921875000000000, 4144.61523437500000000000, 4149.23046875000000000000, 4144.61523437500000000000, 4148.20507812500000000000, 4152.82031250000000000000, 4150.76904296875000000000, 4117.43603515625000000000, 4147.17919921875000000000, 4165.64111328125000000000, 4147.17919921875000000000, 4157.43603515625000000000, 0.00000000000000000000, 2037.00000000000000000000, 2058.00000000000000000000, 0.00000000000000000000, 0.00000000000000000000, 1344.00000000000000000000, 557.00000000000000000000, 0.00000000000000000000, 4.00000000000000000000, 4.00000000000000000000, 4.00000000000000000000, 4.00000000000000000000, 4.00000000000000000000, 4.00000000000000000000, 1.00000000000000000000, 2.00000000000000000000, 4.00000000000000000000, 4.00000000000000000000, 4.00000000000000000000, 4.00000000000000000000, 4.00000000000000000000, 4.00000000000000000000, 4.00000000000000000000
50.00000000000000000000, 0.00000000000000000000, 4145.12792968750000000000, 4153.33300781250000000000, 4153.33300781250000000000, 4134.87158203125000000000, 4114.87158203125000000000, 4136.41015625000000000000, 4142.56396484375000000000, 4149.74365234375000000000, 4145.12792968750000000000, 4115.38427734375000000000, 4135.38427734375000000000, 4157.43603515625000000000, 4133.84619140625000000000, 4148.20507812500000000000, 0.00000000000000000000, 2035.00000000000000000000, 2059.00000000000000000000, 0.00000000000000000000, 0.00000000000000000000, 1344.00000000000000000000, 564.00000000000000000000, 0.00000000000000000000, 4.00000000000000000000, 4.00000000000000000000, 4.00000000000000000000, 4.00000000000000000000, 4.00000000000000000000, 4.00000000000000000000, 1.00000000000000000000, 2.00000000000000000000, 4.00000000000000000000, 4.00000000000000000000, 4.00000000000000000000, 4.00000000000000000000, 4.00000000000000000000, 4.00000000000000000000, 4.00000000000000000000
51.00000000000000000000, 0.00000000000000000000, 4151.79492187500000000000, 4165.64111328125000000000, 4148.20507812500000000000, 4147.69238281250000000000, 4143.07666015625000000000, 4152.82031250000000000000, 4151.28173828125000000000, 4148.20507812500000000000, 4148.20507812500000000000, 4166.66650390625000000000, 4156.92285156250000000000, 4163.58984375000000000000, 4145.12792968750000000000, 4155.89746093750000000000, 0.00000000000000000000, 2035.00000000000000000000, 2060.00000000000000000000, 0.00000000000000000000, 0.00000000000000000000, 1344.00000000000000000000, 572.00000000000000000000, 0.00000000000000000000, 4.00000000000000000000, 4.00000000000000000000, 4.00000000000000000000, 4.00000000000000000000, 4.00000000000000000000, 4.00000000000000000000, 1.00000000000000000000, 2.00000000000000000000, 4.00000000000000000000, 4.00000000000000000000, 4.00000000000000000000, 4.00000000000000000000, 4.00000000000000000000, 4.00000000000000000000, 4.00000000000000000000
52.00000000000000000000, 0.00000000000000000000, 4152.30761718750000000000, 4169.23046875000000000000, 4151.79492187500000000000, 4158.97412109375000000000, 4163.58984375000000000000, 4154.35888671875000000000, 4149.74365234375000000000, 4151.79492187500000000000, 4151.79492187500000000000, 4167.69238281250000000000, 4164.61523437500000000000, 4166.15380859375000000000, 4156.92285156250000000000, 4160.00000000000000000000, 0.00000000000000000000, 2035.00000000000000000000, 2059.00000000000000000000, 0.00000000000000000000, 0.00000000000000000000, 1344.00000000000000000000, 579.00000000000000000000, 0.00000000000000000000, 4.00000000000000000000, 4.00000000000000000000, 4.00000000000000000000, 4.00000000000000000000, 4.00000000000000000000, 4.00000000000000000000, 1.00000000000000000000, 2.00000000000000000000, 4.00000000000000000000, 4.00000000000000000000, 4.00000000000000000000, 4.00000000000000000000, 4.00000000000000000000, 4.00000000000000000000, 4.00000000000000000000
53.00000000000000000000, 0.00000000000000000000, 4144.61523437500000000000, 4153.33300781250000000000, 4146.15380859375000000000, 4145.64111328125000000000, 4136.41015625000000000000, 4141.53857421875000000000, 4142.56396484375000000000, 4146.15380859375000000000, 4149.23046875000000000000, 4130.25634765625000000000, 4141.53857421875000000000, 4158.46142578125000000000, 4144.10253906250000000000, 4151.79492187500000000000, 0.00000000000000000000, 2035.00000000000000000000, 2059.00000000000000000000, 0.00000000000000000000, 0.00000000000000000000, 1344.00000000000000000000, 586.00000000000000000000, 0.00000000000000000000, 4.00000000000000000000, 4.00000000000000000000, 4.00000000000000000000, 4.00000000000000000000, 4.00000000000000000000, 4.00000000000000000000, 1.00000000000000000000, 2.00000000000000000000, 4.00000000000000000000, 4.00000000000000000000, 4.00000000000000000000, 4.00000000000000000000, 4.00000000000000000000, 4.00000000000000000000, 4.00000000000000000000
54.00000000000000000000, 0.00000000000000000000, 4151.28173828125000000000, 4153.84619140625000000000, 4153.84619140625000000000, 4145.12792968750000000000, 4137.94873046875000000000, 4144.61523437500000000000, 4151.28173828125000000000, 4143.58984375000000000000, 4150.25634765625000000000, 4131.28173828125000000000, 4140.51269531250000000000, 4166.15380859375000000000, 4133.84619140625000000000, 4151.28173828125000000000, 0.00000000000000000000, 2037.00000000000000000000, 2060.00000000000000000000, 0.00000000000000000000, 0.00000000000000000000, 1344.00000000000000000000, 594.00000000000000000000, 0.00000000000000000000, 4.00000000000000000000, 4.00000000000000000000, 4.00000000000000000000, 4.00000000000000000000, 4.00000000000000000000, 4.00000000000000000000, 1.00000000000000000000, 2.00000000000000000000, 4.00000000000000000000, 4.00000000000000000000, 4.00000000000000000000, 4.00000000000000000000, 4.00000000000000000000, 4.00000000000000000000, 4.00000000000000000000
55.00000000000000000000, 0.00000000000000000000, 4158.46142578125000000000, 4165.64111328125000000000, 4149.74365234375000000000, 4158.46142578125000000000, 4163.07666015625000000000, 4148.20507812500000000000, 4158.46142578125000000000, 4148.71777343750000000000, 4154.35888671875000000000, 4149.74365234375000000000, 4159.48730468750000000000, 4172.30761718750000000000, 4140.00000000000000000000, 4156.92285156250000000000, 0.00000000000000000000, 2037.00000000000000000000, 2059.00000000000000000000, 0.00000000000000000000, 0.00000000000000000000, 1344.00000000000000000000, 601.00000000000000000000, 0.00000000000000000000, 4.00000000000000000000, 4.00000000000000000000, 4.00000000000000000000, 4.00000000000000000000, 4.00000000000000000000, 4.00000000000000000000, 1.00000000000000000000, 2.00000000000000000000, 4.00000000000000000000, 4.00000000000000000000, 4.00000000000000000000, 4.00000000000000000000, 4.00000000000000000000, 4.00000000000000000000, 4.00000000000000000000
56.00000000000000000000, 0.00000000000000000000, 4161.02539062500000000000, 4163.58984375000000000000, 4151.79492187500000000000, 4156.41015625000000000000, 4165.64111328125000000000, 4141.53857421875000000000, 4151.79492187500000000000, 4151.28173828125000000000, 4154.35888671875000000000, 4154.87158203125000000000, 4164.10253906250000000000, 4167.69238281250000000000, 4147.69238281250000000000, 4161.02539062500000000000, 0.00000000000000000000, 2037.00000000000000000000, 2056.00000000000000000000, 0.00000000000000000000, 0.00000000000000000000, 1344.00000000000000000000, 609.00000000000000000000, 0.00000000000000000000, 4.00000000000000000000, 4.00000000000000000000, 4.00000000000000000000, 4.00000000000000000000, 4.00000000000000000000, 4.00000000000000000000, 1.00000000000000000000, 2.00000000000000000000, 4.00000000000000000000, 4.00000000000000000000, 4.00000000000000000000, 4.00000000000000000000, 4.00000000000000000000, 4.00000000000000000000, 4.00000000000000000000
57.00000000000000000000, 0.00000000000000000000, 4164.10253906250000000000, 4162.56396484375000000000, 4143.58984375000000000000, 4151.28173828125000000000, 4155.89746093750000000000, 4144.61523437500000000000, 4151.79492187500000000000, 4149.74365234375000000000, 4154.35888671875000000000, 4146.15380859375000000000, 4163.07666015625000000000, 4171.28173828125000000000, 4150.25634765625000000000, 4167.69238281250000000000, 0.00000000000000000000, 2039.00000000000000000000, 2056.00000000000000000000, 0.00000000000000000000, 0.00000000000000000000, 1344.00000000000000000000, 616.00000000000000000000, 0.00000000000000000000, 4.00000000000000000000, 4.00000000000000000000, 4.00000000000000000000, 4.00000000000000000000, 4.00000000000000000000, 4.00000000000000000000, 1.00000000000000000000, 2.00000000000000000000, 4.00000000000000000000, 4.00000000000000000000, 4.00000000000000000000, 4.00000000000000000000, 4.00000000000000000000, 4.00000000000000000000, 4.00000000000000000000
58.00000000000000000000, 0.00000000000000000000, 4168.20507812500000000000, 4172.82031250000000000000, 4148.71777343750000000000, 4163.58984375000000000000, 4139.48730468750000000000, 4145.12792968750000000000, 4156.92285156250000000000, 4152.82031250000000000000, 4155.89746093750000000000, 4145.12792968750000000000, 4170.76904296875000000000, 4181.53857421875000000000, 4151.28173828125000000000, 4174.35888671875000000000, 0.00000000000000000000, 2040.00000000000000000000, 2058.00000000000000000000, 0.00000000000000000000, 0.00000000000000000000, 1344.00000000000000000000, 623.00000000000000000000, 0.00000000000000000000, 4.00000000000000000000, 4.00000000000000000000, 4.00000000000000000000, 4.00000000000000000000, 4.00000000000000000000, 4.00000000000000000000, 1.00000000000000000000, 2.00000000000000000000, 4.00000000000000000000, 4.00000000000000000000, 4.00000000000000000000, 4.00000000000000000000, 4.00000000000000000000, 4.00000000000000000000, 4.00000000000000000000
59.00000000000000000000, 0.00000000000000000000, 4169.74365234375000000000, 4172.30761718750000000000, 4150.25634765625000000000, 4166.66650390625000000000, 4130.76904296875000000000, 4138.46142578125000000000, 4152.82031250000000000000, 4150.76904296875000000000, 4154.35888671875000000000, 4162.56396484375000000000, 4173.84619140625000000000, 4173.33300781250000000000, 4151.79492187500000000000, 4173.33300781250000000000, 0.00000000000000000000, 2041.00000000000000000000, 2057.00000000000000000000, 0.00000000000000000000, 0.00000000000000000000, 1344.00000000000000000000, 631.00000000000000000000, 0.00000000000000000000, 4.00000000000000000000, 4.00000000000000000000, 4.00000000000000000000, 4.00000000000000000000, 4.00000000000000000000, 4.00000000000000000000, 1.00000000000000000000, 2.00000000000000000000, 4.00000000000000000000, 4.00000000000000000000, 4.00000000000000000000, 4.00000000000000000000, 4.00000000000000000000, 4.00000000000000000000, 4.00000000000000000000
60.00000000000000000000, 0.00000000000000000000, 4172.82031250000000000000, 4168.71777343750000000000, 4152.30761718750000000000, 4160.00000000000000000000, 4159.48730468750000000000, 4142.56396484375000000000, 4152.30761718750000000000, 4148.71777343750000000000, 4151.79492187500000000000, 4164.10253906250000000000, 4169.74365234375000000000, 4169.23046875000000000000, 4152.82031250000000000000, 4171.28173828125000000000, 0.00000000000000000000, 2042.00000000000000000000, 2056.00000000000000000000, 0.00000000000000000000, 0.00000000000000000000, 1344.00000000000000000000, 638.00000000000000000000, 0.00000000000000000000, 4.00000000000000000000, 4.00000000000000000000, 4.00000000000000000000, 4.00000000000000000000, 4.00000000000000000000, 4.00000000000000000000, 1.00000000000000000000, 2.00000000000000000000, 4.00000000000000000000, 4.00000000000000000000, 4.00000000000000000000, 4.00000000000000000000, 4.00000000000000000000, 4.00000000000000000000, 4.00000000000000000000
61.00000000000000000000, 0.00000000000000000000, 4171.79492187500000000000, 4176.41015625000000000000, 4149.74365234375000000000, 4164.10253906250000000000, 4182.56396484375000000000, 4148.20507812500000000000, 4155.89746093750000000000, 4152.82031250000000000000, 4153.84619140625000000000, 4162.56396484375000000000, 4172.82031250000000000000, 4181.02539062500000000000, 4150.76904296875000000000, 4171.28173828125000000000, 0.00000000000000000000, 2043.00000000000000000000, 2056.00000000000000000000, 0.00000000000000000000, 0.00000000000000000000, 1344.00000000000000000000, 646.00000000000000000000, 0.00000000000000000000, 4.00000000000000000000, 4.00000000000000000000, 4.00000000000000000000, 4.00000000000000000000, 4.00000000000000000000, 4.00000000000000000000, 1.00000000000000000000, 2.00000000000000000000, 4.00000000000000000000, 4.00000000000000000000, 4.00000000000000000000, 4.00000000000000000000, 4.00000000000000000000, 4.00000000000000000000, 4.00000000000000000000
62.00000000000000000000, 0.00000000000000000000, 4167.69238281250000000000, 4177.43603515625000000000, 4152.30761718750000000000, 4168.20507812500000000000, 4163.58984375000000000000, 4144.10253906250000000000, 4155.89746093750000000000, 4154.87158203125000000000, 4154.35888671875000000000, 4166.15380859375000000000, 4174.35888671875000000000, 4179.48730468750000000000, 4149.74365234375000000000, 4172.30761718750000000000, 0.00000000000000000000, 2043.00000000000000000000, 2055.00000000000000000000, 0.00000000000000000000, 0.00000000000000000000, 1344.00000000000000000000, 653.00000000000000000000, 0.00000000000000000000, 4.00000000000000000000, 4.00000000000000000000, 4.00000000000000000000, 4.00000000000000000000, 4.00000000000000000000, 4.00000000000000000000, 1.00000000000000000000, 2.00000000000000000000, 4.00000000000000000000, 4.00000000000000000000, 4.00000000000000000000, 4.00000000000000000000, 4.00000000000000000000, 4.00000000000000000000, 4.00000000000000000000
63.00000000000000000000, 0.00000000000000000000, 4162.56396484375000000000, 4163.07666015625000000000, 4153.33300781250000000000, 4155.89746093750000000000, 4142.56396484375000000000, 4138.97412109375000000000, 4153.84619140625000000000, 4152.30761718750000000000, 4149.23046875000000000000, 4144.10253906250000000000, 4161.53857421875000000000, 4164.10253906250000000000, 4145.64111328125000000000, 4166.66650390625000000000, 0.00000000000000000000, 2042.00000000000000000000, 2056.00000000000000000000, 0.00000000000000000000, 0.00000000000000000000, 1344.00000000000000000000, 660.00000000000000000000, 0.00000000000000000000, 4.00000000000000000000, 4.00000000000000000000, 4.00000000000000000000, 4.00000000000000000000, 4.00000000000000000000, 4.00000000000000000000, 1.00000000000000000000, 2.00000000000000000000, 4.00000000000000000000, 4.00000000000000000000, 4.00000000000000000000, 4.00000000000000000000, 4.00000000000000000000, 4.00000000000000000000, 4.00000000000000000000
64.00000000000000000000, 0.00000000000000000000, 4156.92285156250000000000, 4153.84619140625000000000, 4149.23046875000000000000, 4146.66650390625000000000, 4146.66650390625000000000, 4144.61523437500000000000, 4154.87158203125000000000, 4150.76904296875000000000, 4148.20507812500000000000, 4120.51269531250000000000, 4151.28173828125000000000, 4157.43603515625000000000, 4137.43603515625000000000, 4157.43603515625000000000, 0.00000000000000000000, 2043.00000000000000000000, 2056.00000000000000000000, 0.00000000000000000000, 0.00000000000000000000, 1344.00000000000000000000, 669.00000000000000000000, 0.00000000000000000000, 4.00000000000000000000, 4.00000000000000000000, 4.00000000000000000000, 4.00000000000000000000, 4.00000000000000000000, 4.00000000000000000000, 1.00000000000000000000, 2.00000000000000000000, 4.00000000000000000000, 4.00000000000000000000, 4.00000000000000000000, 4.00000000000000000000, 4.00000000000000000000, 4.00000000000000000000, 4.00000000000000000000
65.00000000000000000000, 0.00000000000000000000, 4160.51269531250000000000, 4157.94873046875000000000, 4147.69238281250000000000, 4153.33300781250000000000, 4154.35888671875000000000, 4153.33300781250000000000, 4161.02539062500000000000, 4151.79492187500000000000, 4153.33300781250000000000, 4128.71777343750000000000, 4155.89746093750000000000, 4162.56396484375000000000, 4139.48730468750000000000, 4158.46142578125000000000, 766.00000000000000000000, 2043.00000000000000000000, 2058.00000000000000000000, 0.00000000000000000000, 0.00000000000000000000, 1344.00000000000000000000, 677.00000000000000000000, 0.00000000000000000000, 4.00000000000000000000, 4.00000000000000000000, 4.00000000000000000000, 4.00000000000000000000, 4.00000000000000000000, 4.00000000000000000000, 1.00000000000000000000, 2.00000000000000000000, 4.00000000000000000000, 4.00000000000000000000, 4.00000000000000000000, 4.00000000000000000000, 4.00000000000000000000, 4.00000000000000000000, 4.00000000000000000000
66.00000000000000000000, 0.00000000000000000000, 4162.56396484375000000000, 4158.97412109375000000000, 4146.66650390625000000000, 4154.87158203125000000000, 4144.61523437500000000000, 4146.15380859375000000000, 4156.41015625000000000000, 4147.69238281250000000000, 4152.82031250000000000000, 4135.89746093750000000000, 4151.28173828125000000000, 4162.05126953125000000000, 4138.46142578125000000000, 4158.46142578125000000000, 626.00000000000000000000, 2044.00000000000000000000, 2058.00000000000000000000, 0.00000000000000000000, 0.00000000000000000000, 1344.00000000000000000000, 686.00000000000000000000, 0.00000000000000000000, 4.00000000000000000000, 4.00000000000000000000, 4.00000000000000000000, 4.00000000000000000000, 4.00000000000000000000, 4.00000000000000000000, 1.00000000000000000000, 2.00000000000000000000, 4.00000000000000000000, 4.00000000000000000000, 4.00000000000000000000, 4.00000000000000000000, 4.00000000000000000000, 4.00000000000000000000, 4.00000000000000000000
67.00000000000000000000, 0.00000000000000000000, 4165.64111328125000000000, 4158.46142578125000000000, 4154.35888671875000000000, 4152.82031250000000000000, 4133.33300781250000000000, 4132.30761718750000000000, 4144.61523437500000000000, 4145.12792968750000000000, 4149.23046875000000000000, 4130.76904296875000000000, 4147.17919921875000000000, 4161.53857421875000000000, 4131.28173828125000000000, 4156.92285156250000000000, 844.00000000000000000000, 2044.00000000000000000000, 2056.00000000000000000000, 0.00000000000000000000, 0.00000000000000000000, 1344.00000000000000000000, 694.00000000000000000000, 0.00000000000000000000, 4.00000000000000000000, 4.00000000000000000000, 4.00000000000000000000, 4.00000000000000000000, 4.00000000000000000000, 4.00000000000000000000, 1.00000000000000000000, 2.00000000000000000000, 4.00000000000000000000, 4.00000000000000000000, 4.00000000000000000000, 4.00000000000000000000, 4.00000000000000000000, 4.00000000000000000000, 4.00000000000000000000
68.00000000000000000000, 0.00000000000000000000, 4172.30761718750000000000, 4165.12792968750000000000, 4147.17919921875000000000, 4156.41015625000000000000, 4148.71777343750000000000, 4130.25634765625000000000, 4141.02539062500000000000, 4148.20507812500000000000, 4152.82031250000000000000, 4142.56396484375000000000, 4158.97412109375000000000, 4167.69238281250000000000, 4137.94873046875000000000, 4165.64111328125000000000, 814.00000000000000000000, 2044.00000000000000000000, 2057.00000000000000000000, 0.00000000000000000000, 0.00000000000000000000, 1344.00000000000000000000, 702.00000000000000000000, 0.00000000000000000000, 4.00000000000000000000, 4.00000000000000000000, 4.00000000000000000000, 4.00000000000000000000, 4.00000000000000000000, 4.00000000000000000000, 1.00000000000000000000, 2.00000000000000000000, 4.00000000000000000000, 4.00000000000000000000, 4.00000000000000000000, 4.00000000000000000000, 4.00000000000000000000, 4.00000000000000000000, 4.00000000000000000000
